
# Total neutron yield = 0.0  n/decay
	 be9 0.0
# Integral of spectrum = 4.0014643614887406e-05  n/decay
100 0.0
200 0.0
300 0.0
400 0.0
500 0.0
600 0.0
700 0.0
800 0.0
900 0.0
1000 0.0
1100 0.0
1200 0.0
1300 0.0
1400 0.0
1500 0.0
1600 0.0
1700 0.0
1800 0.0
1900 0.0
2000 0.0
2100 0.0
2200 0.0
2300 0.0
2400 0.0
2500 0.0
2600 0.0
2700 0.0
2800 0.0
2900 0.0
3000 0.0
3100 0.0
3200 0.0
3300 0.0
3400 0.0
3500 0.0
3600 0.0
3700 0.0
3800 0.0
3900 0.0
4000 0.0
4100 0.0
4200 0.0
4300 0.0
4400 0.0
4500 0.0
4600 0.0
4700 0.0
4800 0.0
4900 0.0
5000 0.0
5100 3.727042449014165e-12
5200 2.2452431378235542e-11
5300 1.6951019028691017e-10
5400 8.489818941414468e-10
5500 2.223756309163854e-09
5600 4.2775474594869535e-09
5700 6.376899519887911e-09
5800 7.248387276015318e-09
5900 7.637298647860263e-09
6000 8.00059819094873e-09
6100 9.302928878696992e-09
6200 1.3018261073046474e-08
6300 1.6375557424564255e-08
6400 1.7805646196678774e-08
6500 1.6867503744801798e-08
6600 1.498336925727291e-08
6700 1.394614167034256e-08
6800 1.3440943627963252e-08
6900 1.3246567223826814e-08
7000 1.320686288667671e-08
7100 1.321748875167093e-08
7200 1.318786319039488e-08
7300 1.3075690618478437e-08
7400 1.289350400479117e-08
7500 1.2624475592599068e-08
7600 1.2249054427395355e-08
7700 1.1818416434655846e-08
7800 1.129236717241654e-08
7900 1.0623075122116888e-08
8000 9.821359283038494e-09
8100 8.894844044318504e-09
8200 7.954678558279982e-09
8300 7.030632298821097e-09
8400 6.340224531491311e-09
8500 5.805567558355949e-09
8600 5.3596719336056196e-09
8700 5.026155627050234e-09
8800 4.796797254848522e-09
8900 4.674950183743915e-09
9000 4.6848849410786346e-09
9100 4.752206905932293e-09
9200 4.862846224369539e-09
9300 4.926809480436071e-09
9400 4.960215408824612e-09
9500 4.7168564175435444e-09
9600 4.232693722976105e-09
9700 3.4776459585708743e-09
9800 2.71143559775325e-09
9900 2.068309566470678e-09
10000 1.5032019034414524e-09
10100 9.954405891770026e-10
10200 4.550799456837285e-10
10300 1.0905195305424464e-10
10400 0.0
10500 0.0
10600 0.0
10700 0.0
10800 0.0
10900 0.0
11000 0.0
11100 0.0
11200 0.0
11300 0.0
11400 0.0
11500 0.0
11600 0.0
11700 0.0
11800 0.0
11900 0.0
12000 0.0
12100 0.0
12200 0.0
12300 0.0
12400 0.0
12500 0.0
12600 0.0
12700 0.0
12800 0.0
12900 0.0
13000 0.0
13100 0.0
13200 0.0
13300 0.0
13400 0.0
13500 0.0
13600 0.0
13700 0.0
13800 0.0
13900 0.0
14000 0.0
14100 0.0
14200 0.0
14300 0.0
14400 0.0
14500 0.0
14600 0.0
14700 0.0
14800 0.0
14900 0.0
15000 0.0
