
# Total neutron yield = 0.0  n/decay
	 b10 0.0
	 b11 0.0
# Integral of spectrum = 7.33274239519337e-08  n/decay
100 2.072994612482261e-12
200 2.4338903374645944e-12
300 2.1669028153185634e-12
400 4.662710467692928e-12
500 8.182514026514916e-12
600 9.942393893624059e-12
700 1.6050524583157008e-11
800 2.4755935693133612e-11
900 3.9394854815570386e-11
1000 4.9949805423666074e-11
1100 5.733428527407229e-11
1200 6.16475945145949e-11
1300 5.762734933502556e-11
1400 5.365585500465076e-11
1500 4.982100059567424e-11
1600 4.6017538382544745e-11
1700 4.2323377833384596e-11
1800 3.857961629767077e-11
1900 3.4111067866358194e-11
2000 2.9743001054935345e-11
2100 2.606292447459793e-11
2200 2.1831822070413758e-11
2300 1.715817672603788e-11
2400 1.2984014507337857e-11
2500 9.88407968420029e-12
2600 7.199788462912268e-12
2700 4.851074236324396e-12
2800 2.3935978694439904e-12
2900 4.3554866053284867e-13
3000 0.0
3100 0.0
3200 0.0
3300 0.0
3400 0.0
3500 0.0
3600 0.0
3700 0.0
3800 0.0
3900 0.0
4000 0.0
4100 0.0
4200 0.0
4300 0.0
4400 0.0
4500 0.0
4600 0.0
4700 0.0
4800 0.0
4900 0.0
5000 0.0
5100 0.0
5200 0.0
5300 0.0
5400 0.0
5500 0.0
5600 0.0
5700 0.0
5800 0.0
5900 0.0
6000 0.0
6100 0.0
6200 0.0
6300 0.0
6400 0.0
6500 0.0
6600 0.0
6700 0.0
6800 0.0
6900 0.0
7000 0.0
7100 0.0
7200 0.0
7300 0.0
7400 0.0
7500 0.0
7600 0.0
7700 0.0
7800 0.0
7900 0.0
8000 0.0
8100 0.0
8200 0.0
8300 0.0
8400 0.0
8500 0.0
8600 0.0
8700 0.0
8800 0.0
8900 0.0
9000 0.0
9100 0.0
9200 0.0
9300 0.0
9400 0.0
9500 0.0
9600 0.0
9700 0.0
9800 0.0
9900 0.0
10000 0.0
10100 0.0
10200 0.0
10300 0.0
10400 0.0
10500 0.0
10600 0.0
10700 0.0
10800 0.0
10900 0.0
11000 0.0
11100 0.0
11200 0.0
11300 0.0
11400 0.0
11500 0.0
11600 0.0
11700 0.0
11800 0.0
11900 0.0
12000 0.0
12100 0.0
12200 0.0
12300 0.0
12400 0.0
12500 0.0
12600 0.0
12700 0.0
12800 0.0
12900 0.0
13000 0.0
13100 0.0
13200 0.0
13300 0.0
13400 0.0
13500 0.0
13600 0.0
13700 0.0
13800 0.0
13900 0.0
14000 0.0
14100 0.0
14200 0.0
14300 0.0
14400 0.0
14500 0.0
14600 0.0
14700 0.0
14800 0.0
14900 0.0
15000 0.0
