
# Total neutron yield = 0.0  n/decay
	 b10 0.0
	 b11 0.0
# Integral of spectrum = 2.9864122567935524e-05  n/decay
100 0.0
200 0.0
300 0.0
400 0.0
500 0.0
600 0.0
700 3.674251231214957e-13
800 2.9538945703982386e-12
900 3.673899620829062e-10
1000 3.4013995949686734e-10
1100 6.457418974396748e-10
1200 2.261789546779396e-09
1300 2.2604232609533178e-09
1400 3.6816942960025447e-09
1500 4.167905446580897e-09
1600 4.9753812761504596e-09
1700 5.7738170205258885e-09
1800 7.117111201900329e-09
1900 9.419428184389556e-09
2000 1.2141447346701795e-08
2100 1.4631829805991817e-08
2200 1.644506071758779e-08
2300 1.747902774845699e-08
2400 1.797588660913375e-08
2500 1.6843367462227665e-08
2600 1.5248227827354114e-08
2700 1.4165914135916722e-08
2800 1.3485472640941776e-08
2900 1.2825537869455013e-08
3000 1.2158272603041546e-08
3100 1.1697744189721202e-08
3200 1.1113246191316758e-08
3300 1.0699724733665544e-08
3400 1.0067030118137561e-08
3500 9.388934932335793e-09
3600 8.393064401953855e-09
3700 7.507130482543808e-09
3800 6.471727000551799e-09
3900 5.365417401330669e-09
4000 4.353230703419795e-09
4100 3.2880896367774417e-09
4200 2.2646699744618034e-09
4300 1.6154789206211285e-09
4400 1.0172493143599695e-09
4500 4.273036663614357e-10
4600 1.310908669244189e-10
4700 1.1279931666566453e-10
4800 9.343906702012017e-11
4900 7.367102550048057e-11
5000 5.5739824751257396e-11
5100 4.1462249514058065e-11
5200 2.7293227055389773e-11
5300 1.5151234840793694e-11
5400 5.489148824197337e-12
5500 8.599118960325181e-13
5600 0.0
5700 0.0
5800 0.0
5900 0.0
6000 0.0
6100 0.0
6200 0.0
6300 0.0
6400 0.0
6500 0.0
6600 0.0
6700 0.0
6800 0.0
6900 0.0
7000 0.0
7100 0.0
7200 0.0
7300 0.0
7400 0.0
7500 0.0
7600 0.0
7700 0.0
7800 0.0
7900 0.0
8000 0.0
8100 0.0
8200 0.0
8300 0.0
8400 0.0
8500 0.0
8600 0.0
8700 0.0
8800 0.0
8900 0.0
9000 0.0
9100 0.0
9200 0.0
9300 0.0
9400 0.0
9500 0.0
9600 0.0
9700 0.0
9800 0.0
9900 0.0
10000 0.0
10100 0.0
10200 0.0
10300 0.0
10400 0.0
10500 0.0
10600 0.0
10700 0.0
10800 0.0
10900 0.0
11000 0.0
11100 0.0
11200 0.0
11300 0.0
11400 0.0
11500 0.0
11600 0.0
11700 0.0
11800 0.0
11900 0.0
12000 0.0
12100 0.0
12200 0.0
12300 0.0
12400 0.0
12500 0.0
12600 0.0
12700 0.0
12800 0.0
12900 0.0
13000 0.0
13100 0.0
13200 0.0
13300 0.0
13400 0.0
13500 0.0
13600 0.0
13700 0.0
13800 0.0
13900 0.0
14000 0.0
14100 0.0
14200 0.0
14300 0.0
14400 0.0
14500 0.0
14600 0.0
14700 0.0
14800 0.0
14900 0.0
15000 0.0
