
# Total neutron yield = 0.0  n/decay
	 c12 0.0
	 c13 0.0
# Integral of spectrum = 7.514766278265279e-08  n/decay
100 0.0
200 0.0
300 0.0
400 0.0
500 0.0
600 0.0
700 0.0
800 0.0
900 0.0
1000 0.0
1100 0.0
1200 0.0
1300 0.0
1400 0.0
1500 0.0
1600 0.0
1700 0.0
1800 0.0
1900 0.0
2000 0.0
2100 0.0
2200 0.0
2300 0.0
2400 2.22992633406972e-15
2500 3.8616664441626364e-14
2600 1.2721000660090797e-13
2700 2.2627485838516476e-13
2800 4.396954555165182e-13
2900 1.2041111010969156e-12
3000 4.459287106517373e-12
3100 9.846236983965806e-12
3200 1.2743657340464754e-11
3300 1.3458456458927005e-11
3400 1.5309290885173454e-11
3500 1.674629350153251e-11
3600 2.2547627768501314e-11
3700 2.642777086410017e-11
3800 2.3156402823884193e-11
3900 2.126818598083092e-11
4000 2.0389302082999637e-11
4100 2.0750606334400035e-11
4200 2.38681281093268e-11
4300 2.5840298269009186e-11
4400 2.604027865411759e-11
4500 3.0599710919883516e-11
4600 3.462951028641678e-11
4700 3.503259480182653e-11
4800 2.997479847081719e-11
4900 2.661071965054298e-11
5000 2.3820593891940655e-11
5100 2.3021067294760387e-11
5200 2.197155238318323e-11
5300 2.0737009234520085e-11
5400 1.7560546286176074e-11
5500 1.3397233503931353e-11
5600 1.1433716215144098e-11
5700 1.1245903620052258e-11
5800 1.1004776663076496e-11
5900 1.1136969880166862e-11
6000 1.1470066357432348e-11
6100 1.1891657292721627e-11
6200 1.2005199128154553e-11
6300 1.2632314617879366e-11
6400 1.3135901901303277e-11
6500 1.2107944503313944e-11
6600 1.2822023607504043e-11
6700 1.1617799695333253e-11
6800 1.1873675431478515e-11
6900 1.2179037362848965e-11
7000 1.008300278686097e-11
7100 8.067486260255515e-12
7200 4.523854602876885e-12
7300 0.0
7400 0.0
7500 0.0
7600 0.0
7700 0.0
7800 0.0
7900 0.0
8000 0.0
8100 0.0
8200 0.0
8300 0.0
8400 0.0
8500 0.0
8600 0.0
8700 0.0
8800 0.0
8900 0.0
9000 0.0
9100 0.0
9200 0.0
9300 0.0
9400 0.0
9500 0.0
9600 0.0
9700 0.0
9800 0.0
9900 0.0
10000 0.0
10100 0.0
10200 0.0
10300 0.0
10400 0.0
10500 0.0
10600 0.0
10700 0.0
10800 0.0
10900 0.0
11000 0.0
11100 0.0
11200 0.0
11300 0.0
11400 0.0
11500 0.0
11600 0.0
11700 0.0
11800 0.0
11900 0.0
12000 0.0
12100 0.0
12200 0.0
12300 0.0
12400 0.0
12500 0.0
12600 0.0
12700 0.0
12800 0.0
12900 0.0
13000 0.0
13100 0.0
13200 0.0
13300 0.0
13400 0.0
13500 0.0
13600 0.0
13700 0.0
13800 0.0
13900 0.0
14000 0.0
14100 0.0
14200 0.0
14300 0.0
14400 0.0
14500 0.0
14600 0.0
14700 0.0
14800 0.0
14900 0.0
15000 0.0
