
# Total neutron yield = 0.0  n/decay
	 na23 0.0
# Integral of spectrum = 1.4433613463686548e-06  n/decay
100 0.0
200 0.0
300 0.0
400 0.0
500 0.0
600 0.0
700 0.0
800 0.0
900 0.0
1000 0.0
1100 0.0
1200 0.0
1300 0.0
1400 0.0
1500 0.0
1600 0.0
1700 0.0
1800 0.0
1900 0.0
2000 0.0
2100 0.0
2200 0.0
2300 0.0
2400 0.0
2500 0.0
2600 0.0
2700 0.0
2800 0.0
2900 0.0
3000 0.0
3100 0.0
3200 0.0
3300 0.0
3400 0.0
3500 0.0
3600 0.0
3700 0.0
3800 0.0
3900 0.0
4000 0.0
4100 0.0
4200 0.0
4300 0.0
4400 0.0
4500 0.0
4600 0.0
4700 0.0
4800 0.0
4900 0.0
5000 0.0
5100 0.0
5200 0.0
5300 0.0
5400 0.0
5500 0.0
5600 5.614203009616697e-12
5700 4.106736299335077e-11
5800 1.0318970548585103e-10
5900 1.699267916538613e-10
6000 2.158431477717758e-10
6100 2.687912381528486e-10
6200 3.2067635339492123e-10
6300 3.7749576595456694e-10
6400 4.3269406475227424e-10
6500 4.820316099587893e-10
6600 5.344757533284881e-10
6700 5.80272853443238e-10
6800 6.284019453058285e-10
6900 6.702966269521175e-10
7000 7.146691271996171e-10
7100 7.088150011309784e-10
7200 6.932727692266784e-10
7300 6.803269365786918e-10
7400 6.644133950665197e-10
7500 6.394611938353083e-10
7600 6.050776805818392e-10
7700 5.562322819634307e-10
7800 5.174612251380385e-10
7900 4.84717208449699e-10
8000 4.5405686916085013e-10
8100 4.226430989211816e-10
8200 3.869427196546285e-10
8300 3.538783477925009e-10
8400 3.17945962731878e-10
8500 2.859061807663121e-10
8600 2.5417975667678846e-10
8700 2.19229613154791e-10
8800 1.8792068725332372e-10
8900 1.536695668323829e-10
9000 1.2300585731054423e-10
9100 9.244099885814909e-11
9200 5.864964065986437e-11
9300 2.7919922585026114e-11
9400 0.0
9500 0.0
9600 0.0
9700 0.0
9800 0.0
9900 0.0
10000 0.0
10100 0.0
10200 0.0
10300 0.0
10400 0.0
10500 0.0
10600 0.0
10700 0.0
10800 0.0
10900 0.0
11000 0.0
11100 0.0
11200 0.0
11300 0.0
11400 0.0
11500 0.0
11600 0.0
11700 0.0
11800 0.0
11900 0.0
12000 0.0
12100 0.0
12200 0.0
12300 0.0
12400 0.0
12500 0.0
12600 0.0
12700 0.0
12800 0.0
12900 0.0
13000 0.0
13100 0.0
13200 0.0
13300 0.0
13400 0.0
13500 0.0
13600 0.0
13700 0.0
13800 0.0
13900 0.0
14000 0.0
14100 0.0
14200 0.0
14300 0.0
14400 0.0
14500 0.0
14600 0.0
14700 0.0
14800 0.0
14900 0.0
15000 0.0
