
# Total neutron yield = 0.0  n/decay
	 na23 0.0
# Integral of spectrum = 8.490877393487943e-07  n/decay
100 0.0
200 0.0
300 0.0
400 0.0
500 0.0
600 0.0
700 0.0
800 0.0
900 0.0
1000 0.0
1100 0.0
1200 0.0
1300 0.0
1400 0.0
1500 0.0
1600 0.0
1700 0.0
1800 0.0
1900 0.0
2000 0.0
2100 0.0
2200 0.0
2300 0.0
2400 0.0
2500 0.0
2600 0.0
2700 0.0
2800 0.0
2900 0.0
3000 0.0
3100 0.0
3200 0.0
3300 0.0
3400 0.0
3500 0.0
3600 0.0
3700 0.0
3800 0.0
3900 0.0
4000 0.0
4100 0.0
4200 0.0
4300 0.0
4400 0.0
4500 0.0
4600 0.0
4700 0.0
4800 0.0
4900 0.0
5000 0.0
5100 0.0
5200 0.0
5300 0.0
5400 0.0
5500 0.0
5600 5.8752109988788105e-12
5700 3.606318880763835e-11
5800 7.484192987001173e-11
5900 1.044021656919575e-10
6000 1.3446791496843832e-10
6100 1.7016703658202236e-10
6200 2.0400225832629258e-10
6300 2.3939304058446145e-10
6400 2.705067292372246e-10
6500 3.0357048092208143e-10
6600 3.3196348384032165e-10
6700 3.616544864091736e-10
6800 3.8985336437214877e-10
6900 4.1405592500220677e-10
7000 4.1651274794904686e-10
7100 4.055586213318997e-10
7200 3.9718322194350003e-10
7300 3.910263128737494e-10
7400 3.839182714952903e-10
7500 3.6788092780720834e-10
7600 3.4482872878673533e-10
7700 3.205855336893985e-10
7800 3.0379253964367684e-10
7900 2.8621387266262673e-10
8000 2.6559853898405393e-10
8100 2.45866826098012e-10
8200 2.2297962127142735e-10
8300 2.0266387645991363e-10
8400 1.826238525020079e-10
8500 1.6046041843915138e-10
8600 1.406451332099455e-10
8700 1.1868636242732808e-10
8800 9.926294179696545e-11
8900 7.784230536032223e-11
9000 5.866050547543178e-11
9100 3.940152700967519e-11
9200 1.7867490657717333e-11
9300 0.0
9400 0.0
9500 0.0
9600 0.0
9700 0.0
9800 0.0
9900 0.0
10000 0.0
10100 0.0
10200 0.0
10300 0.0
10400 0.0
10500 0.0
10600 0.0
10700 0.0
10800 0.0
10900 0.0
11000 0.0
11100 0.0
11200 0.0
11300 0.0
11400 0.0
11500 0.0
11600 0.0
11700 0.0
11800 0.0
11900 0.0
12000 0.0
12100 0.0
12200 0.0
12300 0.0
12400 0.0
12500 0.0
12600 0.0
12700 0.0
12800 0.0
12900 0.0
13000 0.0
13100 0.0
13200 0.0
13300 0.0
13400 0.0
13500 0.0
13600 0.0
13700 0.0
13800 0.0
13900 0.0
14000 0.0
14100 0.0
14200 0.0
14300 0.0
14400 0.0
14500 0.0
14600 0.0
14700 0.0
14800 0.0
14900 0.0
15000 0.0
