
# Total neutron yield = 0.0  n/decay
	 na23 0.0
# Integral of spectrum = 6.127364798690313e-07  n/decay
100 0.0
200 0.0
300 0.0
400 0.0
500 0.0
600 0.0
700 0.0
800 0.0
900 0.0
1000 0.0
1100 0.0
1200 0.0
1300 0.0
1400 0.0
1500 0.0
1600 0.0
1700 0.0
1800 0.0
1900 0.0
2000 0.0
2100 0.0
2200 0.0
2300 0.0
2400 0.0
2500 0.0
2600 0.0
2700 0.0
2800 0.0
2900 0.0
3000 0.0
3100 0.0
3200 0.0
3300 0.0
3400 0.0
3500 0.0
3600 0.0
3700 0.0
3800 0.0
3900 0.0
4000 0.0
4100 0.0
4200 0.0
4300 0.0
4400 0.0
4500 0.0
4600 0.0
4700 0.0
4800 0.0
4900 0.0
5000 0.0
5100 0.0
5200 0.0
5300 0.0
5400 0.0
5500 0.0
5600 7.372311453108612e-12
5700 2.1870888117924716e-11
5800 4.219606920823115e-11
5900 7.102184669666464e-11
6000 1.0127277343057652e-10
6100 1.3369894244440083e-10
6200 1.6335213546053005e-10
6300 1.9548397864659433e-10
6400 2.2332656190703148e-10
6500 2.5212469537879483e-10
6600 2.7684158108270255e-10
6700 3.027473031598044e-10
6800 3.0569045139305006e-10
6900 2.957773704602802e-10
7000 2.8780678594664763e-10
7100 2.8150934060829244e-10
7200 2.7668040302869673e-10
7300 2.731613953462886e-10
7400 2.6900620051867255e-10
7500 2.6150834482275384e-10
7600 2.5318006283239733e-10
7700 2.427904036141153e-10
7800 2.2861440341971748e-10
7900 2.1334872270411872e-10
8000 1.9482669058535462e-10
8100 1.779779281312991e-10
8200 1.6089544359990498e-10
8300 1.4147202828897238e-10
8400 1.2358236071778375e-10
8500 1.0365105068205326e-10
8600 8.591333087362784e-11
8700 6.824636031235889e-11
8800 4.8632337748246065e-11
8900 3.0829650138914706e-11
9000 1.0954645930401406e-11
9100 0.0
9200 0.0
9300 0.0
9400 0.0
9500 0.0
9600 0.0
9700 0.0
9800 0.0
9900 0.0
10000 0.0
10100 0.0
10200 0.0
10300 0.0
10400 0.0
10500 0.0
10600 0.0
10700 0.0
10800 0.0
10900 0.0
11000 0.0
11100 0.0
11200 0.0
11300 0.0
11400 0.0
11500 0.0
11600 0.0
11700 0.0
11800 0.0
11900 0.0
12000 0.0
12100 0.0
12200 0.0
12300 0.0
12400 0.0
12500 0.0
12600 0.0
12700 0.0
12800 0.0
12900 0.0
13000 0.0
13100 0.0
13200 0.0
13300 0.0
13400 0.0
13500 0.0
13600 0.0
13700 0.0
13800 0.0
13900 0.0
14000 0.0
14100 0.0
14200 0.0
14300 0.0
14400 0.0
14500 0.0
14600 0.0
14700 0.0
14800 0.0
14900 0.0
15000 0.0
