
# Total neutron yield = 0.0  n/decay
	 na23 0.0
# Integral of spectrum = 8.28212625800677e-06  n/decay
100 0.0
200 0.0
300 0.0
400 0.0
500 0.0
600 0.0
700 0.0
800 0.0
900 0.0
1000 0.0
1100 0.0
1200 0.0
1300 0.0
1400 0.0
1500 0.0
1600 0.0
1700 0.0
1800 0.0
1900 0.0
2000 0.0
2100 0.0
2200 0.0
2300 0.0
2400 0.0
2500 0.0
2600 0.0
2700 0.0
2800 0.0
2900 0.0
3000 0.0
3100 0.0
3200 0.0
3300 0.0
3400 0.0
3500 0.0
3600 0.0
3700 0.0
3800 0.0
3900 0.0
4000 0.0
4100 0.0
4200 0.0
4300 0.0
4400 0.0
4500 0.0
4600 0.0
4700 0.0
4800 0.0
4900 0.0
5000 0.0
5100 0.0
5200 0.0
5300 0.0
5400 0.0
5500 0.0
5600 0.0
5700 7.1355531270135434e-12
5800 6.552116322090015e-11
5900 1.852426699150692e-10
6000 3.643086097187317e-10
6100 5.831919033072759e-10
6200 8.616915516766725e-10
6300 1.11883179526443e-09
6400 1.380235520435955e-09
6500 1.6850144771655915e-09
6600 1.9864410379447553e-09
6700 2.3308486857945176e-09
6800 2.5367324402368196e-09
6900 2.7613390047476474e-09
7000 2.9871792967213553e-09
7100 3.1260973155900407e-09
7200 3.2030303044108496e-09
7300 3.2435698566286517e-09
7400 3.2741525014330324e-09
7500 3.2747297775892906e-09
7600 3.255249706604346e-09
7700 3.224074269692646e-09
7800 3.1670593481798468e-09
7900 3.089760626938684e-09
8000 3.0245350033772896e-09
8100 2.9715509312223686e-09
8200 2.8783535015455324e-09
8300 2.6974430422334758e-09
8400 2.480013929948212e-09
8500 2.2429794376300544e-09
8600 2.0216643414368993e-09
8700 1.8317248384033386e-09
8800 1.6778532045578908e-09
8900 1.5254145442307966e-09
9000 1.3588481345782237e-09
9100 1.206658756854056e-09
9200 1.1151439831552752e-09
9300 1.0333389236046221e-09
9400 9.61060239671634e-10
9500 8.828970716338228e-10
9600 8.136770615626779e-10
9700 7.457090293878787e-10
9800 6.713196683126702e-10
9900 6.054190965046407e-10
10000 5.325206461476126e-10
10100 4.674584183845207e-10
10200 4.024831359052986e-10
10300 3.297509909922563e-10
10400 2.6390346784109193e-10
10500 1.9689948566377164e-10
10600 1.2074226931255756e-10
10700 5.0462009625075686e-11
10800 0.0
10900 0.0
11000 0.0
11100 0.0
11200 0.0
11300 0.0
11400 0.0
11500 0.0
11600 0.0
11700 0.0
11800 0.0
11900 0.0
12000 0.0
12100 0.0
12200 0.0
12300 0.0
12400 0.0
12500 0.0
12600 0.0
12700 0.0
12800 0.0
12900 0.0
13000 0.0
13100 0.0
13200 0.0
13300 0.0
13400 0.0
13500 0.0
13600 0.0
13700 0.0
13800 0.0
13900 0.0
14000 0.0
14100 0.0
14200 0.0
14300 0.0
14400 0.0
14500 0.0
14600 0.0
14700 0.0
14800 0.0
14900 0.0
15000 0.0
