
# Total neutron yield = 0.0  n/decay
	 na23 0.0
# Integral of spectrum = 2.5881643302465887e-06  n/decay
100 0.0
200 0.0
300 0.0
400 0.0
500 0.0
600 0.0
700 0.0
800 0.0
900 0.0
1000 0.0
1100 0.0
1200 0.0
1300 0.0
1400 0.0
1500 0.0
1600 0.0
1700 0.0
1800 0.0
1900 0.0
2000 0.0
2100 0.0
2200 0.0
2300 0.0
2400 0.0
2500 0.0
2600 0.0
2700 0.0
2800 0.0
2900 0.0
3000 0.0
3100 0.0
3200 0.0
3300 0.0
3400 0.0
3500 0.0
3600 0.0
3700 0.0
3800 0.0
3900 0.0
4000 0.0
4100 0.0
4200 0.0
4300 0.0
4400 0.0
4500 0.0
4600 0.0
4700 0.0
4800 0.0
4900 0.0
5000 0.0
5100 0.0
5200 0.0
5300 0.0
5400 0.0
5500 0.0
5600 0.0
5700 2.3703945028289705e-11
5800 9.593128039720019e-11
5900 1.9446462412910596e-10
6000 3.250526504470459e-10
6100 4.803693859780417e-10
6200 5.908207028953586e-10
6300 6.97115588246473e-10
6400 7.937717469277552e-10
6500 8.807469405916665e-10
6600 9.107398708640052e-10
6700 9.464749129349782e-10
6800 9.785147372645795e-10
6900 1.0158691197258547e-09
7000 1.049208214511144e-09
7100 1.0873639721187557e-09
7200 1.1259917475186851e-09
7300 1.1569271299385608e-09
7400 1.1731563402840809e-09
7500 1.1686905015418367e-09
7600 1.1468855919372441e-09
7700 1.0911177047430048e-09
7800 1.0043700509401008e-09
7900 9.013236470085735e-10
8000 8.087476637008025e-10
8100 7.381246878354774e-10
8200 6.611699322697317e-10
8300 5.914053817907165e-10
8400 5.139291483534654e-10
8500 4.577930512750708e-10
8600 4.248310429416945e-10
8700 3.895909444966109e-10
8800 3.591310445029916e-10
8900 3.2616890304568365e-10
9000 2.9759847558783163e-10
9100 2.699125073121711e-10
9200 2.397373165520692e-10
9300 2.1356054786082724e-10
9400 1.8474271427659739e-10
9500 1.595285042741114e-10
9600 1.3460917844612975e-10
9700 1.0689067762916933e-10
9800 8.216206904757815e-11
9900 5.440176956967323e-11
10000 2.8997335725145942e-11
10100 0.0
10200 0.0
10300 0.0
10400 0.0
10500 0.0
10600 0.0
10700 0.0
10800 0.0
10900 0.0
11000 0.0
11100 0.0
11200 0.0
11300 0.0
11400 0.0
11500 0.0
11600 0.0
11700 0.0
11800 0.0
11900 0.0
12000 0.0
12100 0.0
12200 0.0
12300 0.0
12400 0.0
12500 0.0
12600 0.0
12700 0.0
12800 0.0
12900 0.0
13000 0.0
13100 0.0
13200 0.0
13300 0.0
13400 0.0
13500 0.0
13600 0.0
13700 0.0
13800 0.0
13900 0.0
14000 0.0
14100 0.0
14200 0.0
14300 0.0
14400 0.0
14500 0.0
14600 0.0
14700 0.0
14800 0.0
14900 0.0
15000 0.0
