
# Total neutron yield = 0.0  n/decay
	 na23 0.0
# Integral of spectrum = 1.9752849165084818e-07  n/decay
100 0.0
200 0.0
300 0.0
400 0.0
500 0.0
600 0.0
700 0.0
800 0.0
900 0.0
1000 0.0
1100 0.0
1200 0.0
1300 0.0
1400 0.0
1500 0.0
1600 0.0
1700 0.0
1800 0.0
1900 0.0
2000 0.0
2100 0.0
2200 0.0
2300 0.0
2400 0.0
2500 0.0
2600 0.0
2700 0.0
2800 0.0
2900 0.0
3000 0.0
3100 0.0
3200 0.0
3300 0.0
3400 0.0
3500 0.0
3600 0.0
3700 0.0
3800 0.0
3900 0.0
4000 0.0
4100 0.0
4200 0.0
4300 0.0
4400 0.0
4500 0.0
4600 0.0
4700 0.0
4800 0.0
4900 0.0
5000 0.0
5100 0.0
5200 0.0
5300 0.0
5400 0.0
5500 7.691505127585485e-13
5600 7.422768778367767e-12
5700 2.178555693983508e-11
5800 3.808332226906597e-11
5900 5.765570893335737e-11
6000 7.751495194044407e-11
6100 9.977408398977308e-11
6200 1.0715381537320006e-10
6300 1.0264840944357424e-10
6400 9.882060587233836e-11
6500 9.559243350873584e-11
6600 9.28992653889432e-11
6700 9.068695174184706e-11
6800 8.890969188460868e-11
6900 8.752843973955073e-11
7000 8.650963555441257e-11
7100 8.582420308765005e-11
7200 8.544713057444426e-11
7300 8.535665828425824e-11
7400 8.553421855117667e-11
7500 8.476097076068447e-11
7600 8.103386272107315e-11
7700 7.497038035207924e-11
7800 6.626148700961856e-11
7900 5.739162154190182e-11
8000 4.7494306494820664e-11
8100 3.528891841126319e-11
8200 2.309165400968354e-11
8300 9.074712839015608e-12
8400 0.0
8500 0.0
8600 0.0
8700 0.0
8800 0.0
8900 0.0
9000 0.0
9100 0.0
9200 0.0
9300 0.0
9400 0.0
9500 0.0
9600 0.0
9700 0.0
9800 0.0
9900 0.0
10000 0.0
10100 0.0
10200 0.0
10300 0.0
10400 0.0
10500 0.0
10600 0.0
10700 0.0
10800 0.0
10900 0.0
11000 0.0
11100 0.0
11200 0.0
11300 0.0
11400 0.0
11500 0.0
11600 0.0
11700 0.0
11800 0.0
11900 0.0
12000 0.0
12100 0.0
12200 0.0
12300 0.0
12400 0.0
12500 0.0
12600 0.0
12700 0.0
12800 0.0
12900 0.0
13000 0.0
13100 0.0
13200 0.0
13300 0.0
13400 0.0
13500 0.0
13600 0.0
13700 0.0
13800 0.0
13900 0.0
14000 0.0
14100 0.0
14200 0.0
14300 0.0
14400 0.0
14500 0.0
14600 0.0
14700 0.0
14800 0.0
14900 0.0
15000 0.0
