
# Total neutron yield = 0.0  n/decay
	 na23 0.0
# Integral of spectrum = 1.5027016573449906e-06  n/decay
100 0.0
200 0.0
300 0.0
400 0.0
500 0.0
600 0.0
700 0.0
800 0.0
900 0.0
1000 0.0
1100 0.0
1200 0.0
1300 0.0
1400 0.0
1500 0.0
1600 0.0
1700 0.0
1800 0.0
1900 0.0
2000 0.0
2100 0.0
2200 0.0
2300 0.0
2400 0.0
2500 0.0
2600 0.0
2700 0.0
2800 0.0
2900 0.0
3000 0.0
3100 0.0
3200 0.0
3300 0.0
3400 0.0
3500 0.0
3600 0.0
3700 0.0
3800 0.0
3900 0.0
4000 0.0
4100 0.0
4200 0.0
4300 0.0
4400 0.0
4500 0.0
4600 0.0
4700 0.0
4800 0.0
4900 0.0
5000 0.0
5100 0.0
5200 0.0
5300 0.0
5400 0.0
5500 0.0
5600 1.2269685733496754e-11
5700 3.539738740707637e-11
5800 7.421849840989213e-11
5900 1.2364125307467881e-10
6000 1.8788202505430136e-10
6100 2.532082949556899e-10
6200 3.2884286375836066e-10
6300 4.0405485866493003e-10
6400 4.870405597039456e-10
6500 5.654507474635873e-10
6600 6.5114175531375e-10
6700 7.303673654399107e-10
6800 7.638254462006891e-10
6900 7.522642814867261e-10
7000 7.402761528045446e-10
7100 7.2820634662857e-10
7200 7.162567493120267e-10
7300 7.045330426672581e-10
7400 6.899834572822903e-10
7500 6.699420383208362e-10
7600 6.44953227714387e-10
7700 6.168139186915188e-10
7800 5.845972035216413e-10
7900 5.451841652818787e-10
8000 5.055619152107892e-10
8100 4.6114079553589873e-10
8200 4.187557505542824e-10
8300 3.749611352486114e-10
8400 3.2546556055677267e-10
8500 2.7922651102848085e-10
8600 2.2819559621579502e-10
8700 1.8103315739409115e-10
8800 1.2876879418588547e-10
8900 8.063091534214959e-11
9000 3.2925117285159454e-11
9100 0.0
9200 0.0
9300 0.0
9400 0.0
9500 0.0
9600 0.0
9700 0.0
9800 0.0
9900 0.0
10000 0.0
10100 0.0
10200 0.0
10300 0.0
10400 0.0
10500 0.0
10600 0.0
10700 0.0
10800 0.0
10900 0.0
11000 0.0
11100 0.0
11200 0.0
11300 0.0
11400 0.0
11500 0.0
11600 0.0
11700 0.0
11800 0.0
11900 0.0
12000 0.0
12100 0.0
12200 0.0
12300 0.0
12400 0.0
12500 0.0
12600 0.0
12700 0.0
12800 0.0
12900 0.0
13000 0.0
13100 0.0
13200 0.0
13300 0.0
13400 0.0
13500 0.0
13600 0.0
13700 0.0
13800 0.0
13900 0.0
14000 0.0
14100 0.0
14200 0.0
14300 0.0
14400 0.0
14500 0.0
14600 0.0
14700 0.0
14800 0.0
14900 0.0
15000 0.0
