
# Total neutron yield = 0.0  n/decay
	 na23 0.0
# Integral of spectrum = 1.7247882978675235e-07  n/decay
100 0.0
200 0.0
300 0.0
400 0.0
500 0.0
600 0.0
700 0.0
800 0.0
900 0.0
1000 0.0
1100 0.0
1200 0.0
1300 0.0
1400 0.0
1500 0.0
1600 0.0
1700 0.0
1800 0.0
1900 0.0
2000 0.0
2100 0.0
2200 0.0
2300 0.0
2400 0.0
2500 0.0
2600 0.0
2700 0.0
2800 0.0
2900 0.0
3000 0.0
3100 0.0
3200 0.0
3300 0.0
3400 0.0
3500 0.0
3600 0.0
3700 0.0
3800 0.0
3900 0.0
4000 0.0
4100 0.0
4200 0.0
4300 0.0
4400 0.0
4500 0.0
4600 0.0
4700 0.0
4800 0.0
4900 0.0
5000 0.0
5100 0.0
5200 0.0
5300 0.0
5400 0.0
5500 3.0835463943894723e-12
5600 1.7115707142830296e-11
5700 4.447487209990493e-11
5800 7.791387965976469e-11
5900 9.668267272369722e-11
6000 9.322439218871912e-11
6100 9.0176320212869e-11
6200 8.749871089030382e-11
6300 8.515688086567742e-11
6400 8.312041769151632e-11
6500 8.136253091053941e-11
6600 7.985945084585528e-11
6700 7.859008067934996e-11
6800 7.753551799074277e-11
6900 7.667902383869221e-11
7000 7.600541487024293e-11
7100 7.550113407892114e-11
7200 7.515404206640557e-11
7300 7.495324010127311e-11
7400 7.48889348117561e-11
7500 7.381910056044831e-11
7600 6.871615975693492e-11
7700 5.930416320642341e-11
7800 4.385585311529219e-11
7900 2.594640407418286e-11
8000 4.169847090791262e-12
8100 0.0
8200 0.0
8300 0.0
8400 0.0
8500 0.0
8600 0.0
8700 0.0
8800 0.0
8900 0.0
9000 0.0
9100 0.0
9200 0.0
9300 0.0
9400 0.0
9500 0.0
9600 0.0
9700 0.0
9800 0.0
9900 0.0
10000 0.0
10100 0.0
10200 0.0
10300 0.0
10400 0.0
10500 0.0
10600 0.0
10700 0.0
10800 0.0
10900 0.0
11000 0.0
11100 0.0
11200 0.0
11300 0.0
11400 0.0
11500 0.0
11600 0.0
11700 0.0
11800 0.0
11900 0.0
12000 0.0
12100 0.0
12200 0.0
12300 0.0
12400 0.0
12500 0.0
12600 0.0
12700 0.0
12800 0.0
12900 0.0
13000 0.0
13100 0.0
13200 0.0
13300 0.0
13400 0.0
13500 0.0
13600 0.0
13700 0.0
13800 0.0
13900 0.0
14000 0.0
14100 0.0
14200 0.0
14300 0.0
14400 0.0
14500 0.0
14600 0.0
14700 0.0
14800 0.0
14900 0.0
15000 0.0
