
# Total neutron yield = 0.0  n/decay
	 na23 0.0
# Integral of spectrum = 8.223745377173071e-08  n/decay
100 0.0
200 0.0
300 0.0
400 0.0
500 0.0
600 0.0
700 0.0
800 0.0
900 0.0
1000 0.0
1100 0.0
1200 0.0
1300 0.0
1400 0.0
1500 0.0
1600 0.0
1700 0.0
1800 0.0
1900 0.0
2000 0.0
2100 0.0
2200 0.0
2300 0.0
2400 0.0
2500 0.0
2600 0.0
2700 0.0
2800 0.0
2900 0.0
3000 0.0
3100 0.0
3200 0.0
3300 0.0
3400 0.0
3500 0.0
3600 0.0
3700 0.0
3800 0.0
3900 0.0
4000 0.0
4100 0.0
4200 0.0
4300 0.0
4400 0.0
4500 0.0
4600 0.0
4700 0.0
4800 0.0
4900 0.0
5000 0.0
5100 0.0
5200 0.0
5300 0.0
5400 0.0
5500 2.6073903293439867e-12
5600 1.2945713870009813e-11
5700 3.151487774963613e-11
5800 4.690322313670502e-11
5900 4.516811049694935e-11
6000 4.3631882447370007e-11
6100 4.2276692862247595e-11
6200 4.108664217378774e-11
6300 4.004744532100174e-11
6400 3.914627036540241e-11
6500 3.837155764002795e-11
6600 3.7712882438712506e-11
6700 3.716082698385098e-11
6800 3.6706905986634066e-11
6900 3.6343454370303606e-11
7000 3.606341607953273e-11
7100 3.586054099931587e-11
7200 3.572898084435831e-11
7300 3.566356263907409e-11
7400 3.5659461775051195e-11
7500 3.511014106336172e-11
7600 3.1835527874625165e-11
7700 2.473112176425271e-11
7800 1.5424322265835732e-11
7900 4.673586239916733e-12
8000 0.0
8100 0.0
8200 0.0
8300 0.0
8400 0.0
8500 0.0
8600 0.0
8700 0.0
8800 0.0
8900 0.0
9000 0.0
9100 0.0
9200 0.0
9300 0.0
9400 0.0
9500 0.0
9600 0.0
9700 0.0
9800 0.0
9900 0.0
10000 0.0
10100 0.0
10200 0.0
10300 0.0
10400 0.0
10500 0.0
10600 0.0
10700 0.0
10800 0.0
10900 0.0
11000 0.0
11100 0.0
11200 0.0
11300 0.0
11400 0.0
11500 0.0
11600 0.0
11700 0.0
11800 0.0
11900 0.0
12000 0.0
12100 0.0
12200 0.0
12300 0.0
12400 0.0
12500 0.0
12600 0.0
12700 0.0
12800 0.0
12900 0.0
13000 0.0
13100 0.0
13200 0.0
13300 0.0
13400 0.0
13500 0.0
13600 0.0
13700 0.0
13800 0.0
13900 0.0
14000 0.0
14100 0.0
14200 0.0
14300 0.0
14400 0.0
14500 0.0
14600 0.0
14700 0.0
14800 0.0
14900 0.0
15000 0.0
