
# Total neutron yield = 0.0  n/decay
	 na23 0.0
# Integral of spectrum = 9.257482252095167e-07  n/decay
100 0.0
200 0.0
300 0.0
400 0.0
500 0.0
600 0.0
700 0.0
800 0.0
900 0.0
1000 0.0
1100 0.0
1200 0.0
1300 0.0
1400 0.0
1500 0.0
1600 0.0
1700 0.0
1800 0.0
1900 0.0
2000 0.0
2100 0.0
2200 0.0
2300 0.0
2400 0.0
2500 0.0
2600 0.0
2700 0.0
2800 0.0
2900 0.0
3000 0.0
3100 0.0
3200 0.0
3300 0.0
3400 0.0
3500 0.0
3600 0.0
3700 0.0
3800 0.0
3900 0.0
4000 0.0
4100 0.0
4200 0.0
4300 0.0
4400 0.0
4500 0.0
4600 0.0
4700 0.0
4800 0.0
4900 0.0
5000 0.0
5100 0.0
5200 0.0
5300 0.0
5400 0.0
5500 0.0
5600 0.0
5700 1.7838790823203618e-12
5800 1.638020733585211e-11
5900 4.631051733868836e-11
6000 9.10775631846116e-11
6100 1.458653247500725e-10
6200 2.165926392742423e-10
6300 2.9958431849607545e-10
6400 3.874329316387259e-10
6500 4.89854357304563e-10
6600 5.75023201517466e-10
6700 5.656977129730737e-10
6800 5.564141561430441e-10
6900 5.472553313298639e-10
7000 5.382674541627112e-10
7100 5.294720933750178e-10
7200 5.202588143331074e-10
7300 5.048626131738943e-10
7400 4.849137422462068e-10
7500 4.6036872034313217e-10
7600 4.288596691369136e-10
7700 3.9485656926106264e-10
7800 3.5710717055921254e-10
7900 3.118190210664338e-10
8000 2.6637085030178764e-10
8100 2.171120238816366e-10
8200 1.58617613121167e-10
8300 1.0223643244814011e-10
8400 4.30873243161432e-11
8500 0.0
8600 0.0
8700 0.0
8800 0.0
8900 0.0
9000 0.0
9100 0.0
9200 0.0
9300 0.0
9400 0.0
9500 0.0
9600 0.0
9700 0.0
9800 0.0
9900 0.0
10000 0.0
10100 0.0
10200 0.0
10300 0.0
10400 0.0
10500 0.0
10600 0.0
10700 0.0
10800 0.0
10900 0.0
11000 0.0
11100 0.0
11200 0.0
11300 0.0
11400 0.0
11500 0.0
11600 0.0
11700 0.0
11800 0.0
11900 0.0
12000 0.0
12100 0.0
12200 0.0
12300 0.0
12400 0.0
12500 0.0
12600 0.0
12700 0.0
12800 0.0
12900 0.0
13000 0.0
13100 0.0
13200 0.0
13300 0.0
13400 0.0
13500 0.0
13600 0.0
13700 0.0
13800 0.0
13900 0.0
14000 0.0
14100 0.0
14200 0.0
14300 0.0
14400 0.0
14500 0.0
14600 0.0
14700 0.0
14800 0.0
14900 0.0
15000 0.0
