
# Total neutron yield = 0.0  n/decay
	 b10 0.0
	 b11 0.0
# Integral of spectrum = 9.878146792662727e-07  n/decay
100 7.92888889566354e-11
200 1.532239632111701e-10
300 1.8787618303300079e-10
400 2.558790728701425e-10
500 3.3727629256549665e-10
600 4.69328671478855e-10
700 5.381868579521839e-10
800 5.615914052770621e-10
900 5.710668427186478e-10
1000 5.681646900297174e-10
1100 5.418026927125786e-10
1200 5.211570545921836e-10
1300 4.886246203712167e-10
1400 4.5720446189172396e-10
1500 4.2840876907800564e-10
1600 4.0057792503860177e-10
1700 3.769113178174922e-10
1800 3.496666770045844e-10
1900 3.1737082967794435e-10
2000 2.867402362196497e-10
2100 2.5489448687134674e-10
2200 2.240194295698666e-10
2300 1.9531790117323152e-10
2400 1.6828249007078202e-10
2500 1.4979135143491132e-10
2600 1.3094783573973966e-10
2700 1.1461279371474431e-10
2800 9.841186229388658e-11
2900 8.38530476368893e-11
3000 7.239032413568696e-11
3100 6.379247301952429e-11
3200 5.552643073575462e-11
3300 4.751588368123421e-11
3400 4.034351207288082e-11
3500 3.5925536320593525e-11
3600 3.2873806433777635e-11
3700 2.9932829649330394e-11
3800 2.7383590550887174e-11
3900 2.4715587867232218e-11
4000 2.2175560943147296e-11
4100 1.9752493633305708e-11
4200 1.7648129021776558e-11
4300 1.5464690048373784e-11
4400 1.3456013816839981e-11
4500 1.1573859873961394e-11
4600 9.794281631851479e-12
4700 8.267378660703029e-12
4800 6.664856813943609e-12
4900 5.147637628827188e-12
5000 3.7153342554293955e-12
5100 2.3780340592664404e-12
5200 1.2298968061034267e-12
5300 0.0
5400 0.0
5500 0.0
5600 0.0
5700 0.0
5800 0.0
5900 0.0
6000 0.0
6100 0.0
6200 0.0
6300 0.0
6400 0.0
6500 0.0
6600 0.0
6700 0.0
6800 0.0
6900 0.0
7000 0.0
7100 0.0
7200 0.0
7300 0.0
7400 0.0
7500 0.0
7600 0.0
7700 0.0
7800 0.0
7900 0.0
8000 0.0
8100 0.0
8200 0.0
8300 0.0
8400 0.0
8500 0.0
8600 0.0
8700 0.0
8800 0.0
8900 0.0
9000 0.0
9100 0.0
9200 0.0
9300 0.0
9400 0.0
9500 0.0
9600 0.0
9700 0.0
9800 0.0
9900 0.0
10000 0.0
10100 0.0
10200 0.0
10300 0.0
10400 0.0
10500 0.0
10600 0.0
10700 0.0
10800 0.0
10900 0.0
11000 0.0
11100 0.0
11200 0.0
11300 0.0
11400 0.0
11500 0.0
11600 0.0
11700 0.0
11800 0.0
11900 0.0
12000 0.0
12100 0.0
12200 0.0
12300 0.0
12400 0.0
12500 0.0
12600 0.0
12700 0.0
12800 0.0
12900 0.0
13000 0.0
13100 0.0
13200 0.0
13300 0.0
13400 0.0
13500 0.0
13600 0.0
13700 0.0
13800 0.0
13900 0.0
14000 0.0
14100 0.0
14200 0.0
14300 0.0
14400 0.0
14500 0.0
14600 0.0
14700 0.0
14800 0.0
14900 0.0
15000 0.0
