
# Total neutron yield = 0.0  n/decay
	 b10 0.0
	 b11 0.0
# Integral of spectrum = 2.7964882784986816e-06  n/decay
100 0.0
200 0.0
300 0.0
400 0.0
500 0.0
600 0.0
700 0.0
800 0.0
900 0.0
1000 0.0
1100 0.0
1200 0.0
1300 0.0
1400 3.895958734225579e-14
1500 2.0076114308709735e-12
1600 1.9302406056900326e-11
1700 2.585972824753878e-11
1800 3.2081751701140334e-11
1900 4.407315428779756e-11
2000 5.087589626165618e-11
2100 6.306155451770591e-11
2200 1.1208304426335823e-10
2300 1.7329976835116878e-10
2400 2.403440188294871e-10
2500 3.310850177437802e-10
2600 4.267222167066292e-10
2700 5.289093556266141e-10
2800 6.454983056376514e-10
2900 7.543100097464361e-10
3000 8.340948657063351e-10
3100 8.738146269214489e-10
3200 9.09822190897962e-10
3300 9.441183778144716e-10
3400 9.736815687731003e-10
3500 9.924199385067495e-10
3600 1.0071677823638981e-09
3700 1.011373131713332e-09
3800 1.0027043355447274e-09
3900 9.827585321502493e-10
4000 9.464271657278132e-10
4100 9.160962857024939e-10
4200 8.849036853145715e-10
4300 8.50850948805229e-10
4400 8.140993935020808e-10
4500 7.761065169697967e-10
4600 7.402123936068501e-10
4700 7.080733542784845e-10
4800 6.706854401474155e-10
4900 6.243126709100893e-10
5000 5.788599767465055e-10
5100 5.323263913666522e-10
5200 4.853707799207385e-10
5300 4.4282968059691636e-10
5400 4.0515860359250495e-10
5500 3.7392061761218647e-10
5600 3.472825485355791e-10
5700 3.2665419731226773e-10
5800 3.0689617384526684e-10
5900 2.8598716231330393e-10
6000 2.6450039123594623e-10
6100 2.4356980621605996e-10
6200 2.2485671637741602e-10
6300 2.0656916665698155e-10
6400 1.8980728419787375e-10
6500 1.755669288032233e-10
6600 1.6074444367797519e-10
6700 1.462477204216767e-10
6800 1.3299503169076097e-10
6900 1.2010586407796498e-10
7000 1.106423241762225e-10
7100 1.0161107779975567e-10
7200 9.271830202449157e-11
7300 8.399748292094999e-11
7400 7.730404338781172e-11
7500 7.308104363763664e-11
7600 6.858626188187385e-11
7700 6.406270848572885e-11
7800 5.951334185251906e-11
7900 5.4943449802982413e-11
8000 5.0360699787392434e-11
8100 4.577809071809092e-11
8200 4.1207032846441e-11
8300 3.6663881490091127e-11
8400 3.216438807111929e-11
8500 2.772467530941157e-11
8600 2.3673005455596483e-11
8700 1.9426328009439043e-11
8800 1.530237766278e-11
8900 1.1314875196498565e-11
9000 7.47801597038731e-12
9100 3.803888948622756e-12
9200 0.0
9300 0.0
9400 0.0
9500 0.0
9600 0.0
9700 0.0
9800 0.0
9900 0.0
10000 0.0
10100 0.0
10200 0.0
10300 0.0
10400 0.0
10500 0.0
10600 0.0
10700 0.0
10800 0.0
10900 0.0
11000 0.0
11100 0.0
11200 0.0
11300 0.0
11400 0.0
11500 0.0
11600 0.0
11700 0.0
11800 0.0
11900 0.0
12000 0.0
12100 0.0
12200 0.0
12300 0.0
12400 0.0
12500 0.0
12600 0.0
12700 0.0
12800 0.0
12900 0.0
13000 0.0
13100 0.0
13200 0.0
13300 0.0
13400 0.0
13500 0.0
13600 0.0
13700 0.0
13800 0.0
13900 0.0
14000 0.0
14100 0.0
14200 0.0
14300 0.0
14400 0.0
14500 0.0
14600 0.0
14700 0.0
14800 0.0
14900 0.0
15000 0.0
