
# Total neutron yield = 0.0  n/decay
	 b10 0.0
	 b11 0.0
# Integral of spectrum = 7.502140350673977e-07  n/decay
100 3.41240689357165e-11
200 9.67173191100581e-11
300 1.302758306153759e-10
400 1.6926204540040851e-10
500 2.2652896246255594e-10
600 3.17177143480061e-10
700 3.8577115080122307e-10
800 4.1907221411051953e-10
900 4.318406100444204e-10
1000 4.351686691598182e-10
1100 4.243135458595799e-10
1200 4.0905305569559304e-10
1300 3.89155936502102e-10
1400 3.651882886928762e-10
1500 3.4129148699268173e-10
1600 3.188962131265474e-10
1700 2.9787882939324986e-10
1800 2.756392407163021e-10
1900 2.5171967725762036e-10
2000 2.2575232555769066e-10
2100 2.0189045732893022e-10
2200 1.7649337422905197e-10
2300 1.5558444998927707e-10
2400 1.3484586435051023e-10
2500 1.1733518824956537e-10
2600 1.0340759779766987e-10
2700 8.955891900993664e-11
2800 7.680448929822696e-11
2900 6.649449354884014e-11
3000 5.6167032355069234e-11
3100 4.9204934890676044e-11
3200 4.336275143394094e-11
3300 3.743945750946655e-11
3400 3.183188492882174e-11
3500 2.7493759394961862e-11
3600 2.5216344974435173e-11
3700 2.2882152556798158e-11
3800 2.0665935791985005e-11
3900 1.8569455563721564e-11
4000 1.6725994436266986e-11
4100 1.484465709028788e-11
4200 1.3062848794236074e-11
4300 1.1386159437985145e-11
4400 9.847658912086775e-12
4500 8.536361926179663e-12
4600 7.204301052476281e-12
4700 5.959341242468984e-12
4800 4.797484450261821e-12
4900 3.717124063679108e-12
5000 2.7975025576500846e-12
5100 1.877169557575435e-12
5200 1.041125669166595e-12
5300 2.674643673733053e-13
5400 0.0
5500 0.0
5600 0.0
5700 0.0
5800 0.0
5900 0.0
6000 0.0
6100 0.0
6200 0.0
6300 0.0
6400 0.0
6500 0.0
6600 0.0
6700 0.0
6800 0.0
6900 0.0
7000 0.0
7100 0.0
7200 0.0
7300 0.0
7400 0.0
7500 0.0
7600 0.0
7700 0.0
7800 0.0
7900 0.0
8000 0.0
8100 0.0
8200 0.0
8300 0.0
8400 0.0
8500 0.0
8600 0.0
8700 0.0
8800 0.0
8900 0.0
9000 0.0
9100 0.0
9200 0.0
9300 0.0
9400 0.0
9500 0.0
9600 0.0
9700 0.0
9800 0.0
9900 0.0
10000 0.0
10100 0.0
10200 0.0
10300 0.0
10400 0.0
10500 0.0
10600 0.0
10700 0.0
10800 0.0
10900 0.0
11000 0.0
11100 0.0
11200 0.0
11300 0.0
11400 0.0
11500 0.0
11600 0.0
11700 0.0
11800 0.0
11900 0.0
12000 0.0
12100 0.0
12200 0.0
12300 0.0
12400 0.0
12500 0.0
12600 0.0
12700 0.0
12800 0.0
12900 0.0
13000 0.0
13100 0.0
13200 0.0
13300 0.0
13400 0.0
13500 0.0
13600 0.0
13700 0.0
13800 0.0
13900 0.0
14000 0.0
14100 0.0
14200 0.0
14300 0.0
14400 0.0
14500 0.0
14600 0.0
14700 0.0
14800 0.0
14900 0.0
15000 0.0
