
# Total neutron yield = 0.0  n/decay
	 b10 0.0
	 b11 0.0
# Integral of spectrum = 7.296907420590704e-07  n/decay
100 4.1486286057264525e-12
200 4.8708795557920056e-12
300 4.3365645773171e-12
400 9.331357597368827e-12
500 1.637544620364905e-11
600 1.9897446654286264e-11
700 3.212148503505591e-11
800 4.9542175894701705e-11
900 7.486210039605833e-11
1000 1.0045593950803648e-10
1100 1.204298912693273e-10
1200 1.524568411965153e-10
1300 1.9166323496143245e-10
1400 2.463398905789161e-10
1500 2.945747133327615e-10
1600 3.2590155817939326e-10
1700 3.4472539667072257e-10
1800 3.58833354634225e-10
1900 3.607771514015554e-10
2000 3.567292074957603e-10
2100 3.4917840846498995e-10
2200 3.343070616588795e-10
2300 3.185443152655204e-10
2400 3.024842125496163e-10
2500 2.8610627203812426e-10
2600 2.703962692136843e-10
2700 2.5524495768623123e-10
2800 2.3974853202144045e-10
2900 2.231088312514678e-10
3000 2.0591444023664856e-10
3100 1.8931326367774306e-10
3200 1.6976728967449458e-10
3300 1.4939876333300662e-10
3400 1.294013243259588e-10
3500 1.1117375501276026e-10
3600 9.621582168168837e-11
3700 8.282002423894673e-11
3800 7.1861408250819e-11
3900 6.244372146188993e-11
4000 5.3740534937667804e-11
4100 4.5707400152703455e-11
4200 3.8897206944305367e-11
4300 3.266698781465798e-11
4400 2.834374402731951e-11
4500 2.4631362393272774e-11
4600 2.1398487155889764e-11
4700 1.8116360347100207e-11
4800 1.5438864349270264e-11
4900 1.4012612042444157e-11
5000 1.2656981758337771e-11
5100 1.1376267023733887e-11
5200 1.0170410117303219e-11
5300 9.036201477450118e-12
5400 7.970519008797879e-12
5500 7.040558396454307e-12
5600 6.1058758901287944e-12
5700 5.253214526213868e-12
5800 4.472708664396892e-12
5900 3.74823110185827e-12
6000 3.0772253762653254e-12
6100 2.457479173281306e-12
6200 1.887263323006999e-12
6300 1.365111653634315e-12
6400 9.304574204844444e-13
6500 5.001818876286324e-13
6600 1.0323783458908404e-13
6700 0.0
6800 0.0
6900 0.0
7000 0.0
7100 0.0
7200 0.0
7300 0.0
7400 0.0
7500 0.0
7600 0.0
7700 0.0
7800 0.0
7900 0.0
8000 0.0
8100 0.0
8200 0.0
8300 0.0
8400 0.0
8500 0.0
8600 0.0
8700 0.0
8800 0.0
8900 0.0
9000 0.0
9100 0.0
9200 0.0
9300 0.0
9400 0.0
9500 0.0
9600 0.0
9700 0.0
9800 0.0
9900 0.0
10000 0.0
10100 0.0
10200 0.0
10300 0.0
10400 0.0
10500 0.0
10600 0.0
10700 0.0
10800 0.0
10900 0.0
11000 0.0
11100 0.0
11200 0.0
11300 0.0
11400 0.0
11500 0.0
11600 0.0
11700 0.0
11800 0.0
11900 0.0
12000 0.0
12100 0.0
12200 0.0
12300 0.0
12400 0.0
12500 0.0
12600 0.0
12700 0.0
12800 0.0
12900 0.0
13000 0.0
13100 0.0
13200 0.0
13300 0.0
13400 0.0
13500 0.0
13600 0.0
13700 0.0
13800 0.0
13900 0.0
14000 0.0
14100 0.0
14200 0.0
14300 0.0
14400 0.0
14500 0.0
14600 0.0
14700 0.0
14800 0.0
14900 0.0
15000 0.0
