
# Total neutron yield = 0.0  n/decay
	 b10 0.0
	 b11 0.0
# Integral of spectrum = 8.298524410428977e-06  n/decay
100 1.8990500681425122e-11
200 4.242197251907622e-11
300 6.709725667485999e-11
400 2.3442731988145586e-10
500 1.3818388334911826e-09
600 2.3982658775141528e-09
700 4.050205316412379e-09
800 6.173266439114748e-09
900 5.734351784786135e-09
1000 6.000276737304847e-09
1100 5.761746681799521e-09
1200 5.339250576285401e-09
1300 5.048695527287776e-09
1400 4.854246028947066e-09
1500 4.5526037702002325e-09
1600 4.207161062475477e-09
1700 3.9060150244558316e-09
1800 3.6242700516602453e-09
1900 3.238656969597328e-09
2000 2.8019464741687475e-09
2100 2.2638524515572744e-09
2200 1.578198431061375e-09
2300 1.4448552093819688e-09
2400 1.2882575083215473e-09
2500 1.0971221246229623e-09
2600 8.328482625817256e-10
2700 6.604384792164336e-10
2800 5.517130889902205e-10
2900 4.834348996530681e-10
3000 4.3835922442149396e-10
3100 3.9662691079400973e-10
3200 3.510203884730378e-10
3300 2.9737890183682095e-10
3400 2.4595019236933275e-10
3500 2.109758488499335e-10
3600 1.8526109583563903e-10
3700 1.6345828333550463e-10
3800 1.4352327910809144e-10
3900 1.2554674167364102e-10
4000 1.1032247819488735e-10
4100 9.656573416642692e-11
4200 8.52526189264595e-11
4300 7.481697161760639e-11
4400 6.58893304704324e-11
4500 5.838617184441737e-11
4600 5.127951598949325e-11
4700 4.328282493084114e-11
4800 3.538592512454856e-11
4900 3.046690104254368e-11
5000 2.6286728477661088e-11
5100 2.2374080526880012e-11
5200 1.8616411111447225e-11
5300 1.5423506720509754e-11
5400 1.289186719371557e-11
5500 1.0583064803584431e-11
5600 8.323616481159733e-12
5700 5.998932890032239e-12
5800 4.472708664396892e-12
5900 3.74823110185827e-12
6000 3.0772253762653254e-12
6100 2.457479173281306e-12
6200 1.887263323006999e-12
6300 1.365111653634315e-12
6400 9.304574204844444e-13
6500 5.001818876286324e-13
6600 1.0323783458908404e-13
6700 0.0
6800 0.0
6900 0.0
7000 0.0
7100 0.0
7200 0.0
7300 0.0
7400 0.0
7500 0.0
7600 0.0
7700 0.0
7800 0.0
7900 0.0
8000 0.0
8100 0.0
8200 0.0
8300 0.0
8400 0.0
8500 0.0
8600 0.0
8700 0.0
8800 0.0
8900 0.0
9000 0.0
9100 0.0
9200 0.0
9300 0.0
9400 0.0
9500 0.0
9600 0.0
9700 0.0
9800 0.0
9900 0.0
10000 0.0
10100 0.0
10200 0.0
10300 0.0
10400 0.0
10500 0.0
10600 0.0
10700 0.0
10800 0.0
10900 0.0
11000 0.0
11100 0.0
11200 0.0
11300 0.0
11400 0.0
11500 0.0
11600 0.0
11700 0.0
11800 0.0
11900 0.0
12000 0.0
12100 0.0
12200 0.0
12300 0.0
12400 0.0
12500 0.0
12600 0.0
12700 0.0
12800 0.0
12900 0.0
13000 0.0
13100 0.0
13200 0.0
13300 0.0
13400 0.0
13500 0.0
13600 0.0
13700 0.0
13800 0.0
13900 0.0
14000 0.0
14100 0.0
14200 0.0
14300 0.0
14400 0.0
14500 0.0
14600 0.0
14700 0.0
14800 0.0
14900 0.0
15000 0.0
