
# Total neutron yield = 0.0  n/decay
	 b10 0.0
	 b11 0.0
# Integral of spectrum = 8.56205938715717e-06  n/decay
100 6.786845602766964e-09
200 5.995080193147985e-09
300 6.658815420932077e-09
400 5.748886325090048e-09
500 5.379560556539575e-09
600 5.117687113767238e-09
700 4.773694776173972e-09
800 4.3539881537864896e-09
900 4.151679122995488e-09
1000 3.997436647158439e-09
1100 3.7527134324940676e-09
1200 3.478205288978138e-09
1300 3.1067645865302744e-09
1400 2.695943334928951e-09
1500 2.281062630659395e-09
1600 2.0246338279467377e-09
1700 1.8195302841595458e-09
1800 1.6395693520766187e-09
1900 1.46804156923552e-09
2000 1.3206094887761214e-09
2100 1.1894466675762703e-09
2200 1.0624491728215205e-09
2300 9.718524456870152e-10
2400 8.846931925808435e-10
2500 7.890040828525901e-10
2600 7.107581754671008e-10
2700 6.382897744211515e-10
2800 5.475998774468366e-10
2900 4.5399467814563396e-10
3000 3.7131781140773917e-10
3100 3.1760148240217266e-10
3200 2.6408893264034734e-10
3300 2.146114294936096e-10
3400 1.676963805503511e-10
3500 1.3405762410055458e-10
3600 1.045169985815772e-10
3700 7.88898239349049e-11
3800 4.8342964196354586e-11
3900 1.8569455563721564e-11
4000 1.6725994436266986e-11
4100 1.484465709028788e-11
4200 1.3062848794236074e-11
4300 1.1386159437985145e-11
4400 9.847658912086775e-12
4500 8.536361926179663e-12
4600 7.204301052476281e-12
4700 5.959341242468984e-12
4800 4.797484450261821e-12
4900 3.717124063679108e-12
5000 2.7975025576500846e-12
5100 1.877169557575435e-12
5200 1.041125669166595e-12
5300 2.674643673733053e-13
5400 0.0
5500 0.0
5600 0.0
5700 0.0
5800 0.0
5900 0.0
6000 0.0
6100 0.0
6200 0.0
6300 0.0
6400 0.0
6500 0.0
6600 0.0
6700 0.0
6800 0.0
6900 0.0
7000 0.0
7100 0.0
7200 0.0
7300 0.0
7400 0.0
7500 0.0
7600 0.0
7700 0.0
7800 0.0
7900 0.0
8000 0.0
8100 0.0
8200 0.0
8300 0.0
8400 0.0
8500 0.0
8600 0.0
8700 0.0
8800 0.0
8900 0.0
9000 0.0
9100 0.0
9200 0.0
9300 0.0
9400 0.0
9500 0.0
9600 0.0
9700 0.0
9800 0.0
9900 0.0
10000 0.0
10100 0.0
10200 0.0
10300 0.0
10400 0.0
10500 0.0
10600 0.0
10700 0.0
10800 0.0
10900 0.0
11000 0.0
11100 0.0
11200 0.0
11300 0.0
11400 0.0
11500 0.0
11600 0.0
11700 0.0
11800 0.0
11900 0.0
12000 0.0
12100 0.0
12200 0.0
12300 0.0
12400 0.0
12500 0.0
12600 0.0
12700 0.0
12800 0.0
12900 0.0
13000 0.0
13100 0.0
13200 0.0
13300 0.0
13400 0.0
13500 0.0
13600 0.0
13700 0.0
13800 0.0
13900 0.0
14000 0.0
14100 0.0
14200 0.0
14300 0.0
14400 0.0
14500 0.0
14600 0.0
14700 0.0
14800 0.0
14900 0.0
15000 0.0
