
# Total neutron yield = 0.0  n/decay
	 b10 0.0
	 b11 0.0
# Integral of spectrum = 1.234065857459358e-06  n/decay
100 3.052844669376361e-10
200 3.918743821173506e-10
300 4.2435667007866955e-10
400 4.862455757996878e-10
500 5.493746699290607e-10
600 6.6047908111164e-10
700 7.122012950005619e-10
800 7.117311863797051e-10
900 6.964656385681216e-10
1000 6.758304195129302e-10
1100 6.356806128747503e-10
1200 6.02501603355864e-10
1300 5.595016762170722e-10
1400 5.193774262880524e-10
1500 4.822660132639866e-10
1600 4.462790887129747e-10
1700 4.134782696990466e-10
1800 3.7916206254448184e-10
1900 3.417626568476648e-10
2000 3.067182174847523e-10
2100 2.706217129368085e-10
2200 2.3609002410392984e-10
2300 2.045261110335966e-10
2400 1.751944351447737e-10
2500 1.5470260552736116e-10
2600 1.3373546744420353e-10
2700 1.1528415408768504e-10
2800 9.841186229388658e-11
2900 8.38530476368893e-11
3000 7.239032413568696e-11
3100 6.379247301952429e-11
3200 5.552643073575462e-11
3300 4.751588368123421e-11
3400 4.034351207288082e-11
3500 3.5925536320593525e-11
3600 3.2873806433777635e-11
3700 2.9932829649330394e-11
3800 2.7383590550887174e-11
3900 2.4715587867232218e-11
4000 2.2175560943147296e-11
4100 1.9752493633305708e-11
4200 1.7648129021776558e-11
4300 1.5464690048373784e-11
4400 1.3456013816839981e-11
4500 1.1573859873961394e-11
4600 9.794281631851479e-12
4700 8.267378660703029e-12
4800 6.664856813943609e-12
4900 5.147637628827188e-12
5000 3.7153342554293955e-12
5100 2.3780340592664404e-12
5200 1.2298968061034267e-12
5300 0.0
5400 0.0
5500 0.0
5600 0.0
5700 0.0
5800 0.0
5900 0.0
6000 0.0
6100 0.0
6200 0.0
6300 0.0
6400 0.0
6500 0.0
6600 0.0
6700 0.0
6800 0.0
6900 0.0
7000 0.0
7100 0.0
7200 0.0
7300 0.0
7400 0.0
7500 0.0
7600 0.0
7700 0.0
7800 0.0
7900 0.0
8000 0.0
8100 0.0
8200 0.0
8300 0.0
8400 0.0
8500 0.0
8600 0.0
8700 0.0
8800 0.0
8900 0.0
9000 0.0
9100 0.0
9200 0.0
9300 0.0
9400 0.0
9500 0.0
9600 0.0
9700 0.0
9800 0.0
9900 0.0
10000 0.0
10100 0.0
10200 0.0
10300 0.0
10400 0.0
10500 0.0
10600 0.0
10700 0.0
10800 0.0
10900 0.0
11000 0.0
11100 0.0
11200 0.0
11300 0.0
11400 0.0
11500 0.0
11600 0.0
11700 0.0
11800 0.0
11900 0.0
12000 0.0
12100 0.0
12200 0.0
12300 0.0
12400 0.0
12500 0.0
12600 0.0
12700 0.0
12800 0.0
12900 0.0
13000 0.0
13100 0.0
13200 0.0
13300 0.0
13400 0.0
13500 0.0
13600 0.0
13700 0.0
13800 0.0
13900 0.0
14000 0.0
14100 0.0
14200 0.0
14300 0.0
14400 0.0
14500 0.0
14600 0.0
14700 0.0
14800 0.0
14900 0.0
15000 0.0
