
# Total neutron yield = 0.0  n/decay
	 li6 0.0
	 li7 0.0
# Integral of spectrum = 1.910655995657383e-05  n/decay
100 2.277552765284573e-08
200 1.7372727392114744e-08
300 1.5568719262830897e-08
400 1.4243961335810605e-08
500 1.2959100104074478e-08
600 1.215471655516215e-08
700 1.1448915203775216e-08
800 9.886549507200845e-09
900 8.724937880782052e-09
1000 7.754580179507359e-09
1100 6.855031443774677e-09
1200 6.071989545880589e-09
1300 5.420686093595637e-09
1400 4.905304069744586e-09
1500 4.456755219462306e-09
1600 3.9965481990368e-09
1700 3.514806812945481e-09
1800 3.0695647327987045e-09
1900 2.785734965444453e-09
2000 2.507269306035429e-09
2100 2.2212732435199216e-09
2200 1.967385949628236e-09
2300 1.7066516747818028e-09
2400 1.484093685419706e-09
2500 1.2898670596118851e-09
2600 1.1146109215995947e-09
2700 9.682247223043793e-10
2800 8.49414395330303e-10
2900 7.28717202984024e-10
3000 6.122129197792137e-10
3100 5.116292989503252e-10
3200 4.08264274989062e-10
3300 3.0951505729801396e-10
3400 2.1778125542838126e-10
3500 1.4070089121469139e-10
3600 6.183155007591312e-11
3700 0.0
3800 0.0
3900 0.0
4000 0.0
4100 0.0
4200 0.0
4300 0.0
4400 0.0
4500 0.0
4600 0.0
4700 0.0
4800 0.0
4900 0.0
5000 0.0
5100 0.0
5200 0.0
5300 0.0
5400 0.0
5500 0.0
5600 0.0
5700 0.0
5800 0.0
5900 0.0
6000 0.0
6100 0.0
6200 0.0
6300 0.0
6400 0.0
6500 0.0
6600 0.0
6700 0.0
6800 0.0
6900 0.0
7000 0.0
7100 0.0
7200 0.0
7300 0.0
7400 0.0
7500 0.0
7600 0.0
7700 0.0
7800 0.0
7900 0.0
8000 0.0
8100 0.0
8200 0.0
8300 0.0
8400 0.0
8500 0.0
8600 0.0
8700 0.0
8800 0.0
8900 0.0
9000 0.0
9100 0.0
9200 0.0
9300 0.0
9400 0.0
9500 0.0
9600 0.0
9700 0.0
9800 0.0
9900 0.0
10000 0.0
10100 0.0
10200 0.0
10300 0.0
10400 0.0
10500 0.0
10600 0.0
10700 0.0
10800 0.0
10900 0.0
11000 0.0
11100 0.0
11200 0.0
11300 0.0
11400 0.0
11500 0.0
11600 0.0
11700 0.0
11800 0.0
11900 0.0
12000 0.0
12100 0.0
12200 0.0
12300 0.0
12400 0.0
12500 0.0
12600 0.0
12700 0.0
12800 0.0
12900 0.0
13000 0.0
13100 0.0
13200 0.0
13300 0.0
13400 0.0
13500 0.0
13600 0.0
13700 0.0
13800 0.0
13900 0.0
14000 0.0
14100 0.0
14200 0.0
14300 0.0
14400 0.0
14500 0.0
14600 0.0
14700 0.0
14800 0.0
14900 0.0
15000 0.0
