
# Total neutron yield = 0.0  n/decay
	 o16 0.0
	 o17 0.0
	 o18 0.0
# Integral of spectrum = 4.010017492554918e-09  n/decay
100 0.0
200 0.0
300 0.0
400 0.0
500 0.0
600 0.0
700 0.0
800 0.0
900 0.0
1000 0.0
1100 0.0
1200 0.0
1300 0.0
1400 0.0
1500 0.0
1600 0.0
1700 0.0
1800 0.0
1900 0.0
2000 0.0
2100 0.0
2200 0.0
2300 0.0
2400 0.0
2500 0.0
2600 0.0
2700 0.0
2800 0.0
2900 0.0
3000 0.0
3100 0.0
3200 0.0
3300 0.0
3400 0.0
3500 0.0
3600 0.0
3700 0.0
3800 0.0
3900 0.0
4000 0.0
4100 0.0
4200 0.0
4300 0.0
4400 2.6180559594013768e-20
4500 7.499173723256449e-17
4600 3.324941109848934e-16
4700 3.02887280815829e-15
4800 8.114854112951692e-15
4900 2.608265413059847e-14
5000 4.189822157271289e-14
5100 5.679038836723894e-14
5200 7.983684288032875e-14
5300 8.987562146972588e-14
5400 1.6751661098822852e-13
5500 2.896227137507447e-13
5600 3.1970996486455766e-13
5700 4.0751871654135767e-13
5800 5.65415732757467e-13
5900 7.694612462479256e-13
6000 9.308150101276517e-13
6100 1.132398391391921e-12
6200 1.238649981505335e-12
6300 1.2972782099520112e-12
6400 1.4268275506180482e-12
6500 1.5464970877598557e-12
6600 1.701470156842967e-12
6700 1.8507558184680416e-12
6800 1.9348542557064165e-12
6900 1.8788777725573168e-12
7000 1.807803174772591e-12
7100 1.7135673380087452e-12
7200 1.6321849788130908e-12
7300 1.5864991812868157e-12
7400 1.5487287712596376e-12
7500 1.4997170448292652e-12
7600 1.4354288942716107e-12
7700 1.3455415254355684e-12
7800 1.2407838305930325e-12
7900 1.1455207278995342e-12
8000 1.0644969090119443e-12
8100 9.315995610499083e-13
8200 8.358367016442371e-13
8300 7.771204322710888e-13
8400 7.081122479911305e-13
8500 6.632447801828823e-13
8600 5.795174173951063e-13
8700 5.026244362460045e-13
8800 4.308857039208304e-13
8900 3.692878005698543e-13
9000 2.677489724630215e-13
9100 1.8122655061113214e-13
9200 6.899375757181405e-14
9300 0.0
9400 0.0
9500 0.0
9600 0.0
9700 0.0
9800 0.0
9900 0.0
10000 0.0
10100 0.0
10200 0.0
10300 0.0
10400 0.0
10500 0.0
10600 0.0
10700 0.0
10800 0.0
10900 0.0
11000 0.0
11100 0.0
11200 0.0
11300 0.0
11400 0.0
11500 0.0
11600 0.0
11700 0.0
11800 0.0
11900 0.0
12000 0.0
12100 0.0
12200 0.0
12300 0.0
12400 0.0
12500 0.0
12600 0.0
12700 0.0
12800 0.0
12900 0.0
13000 0.0
13100 0.0
13200 0.0
13300 0.0
13400 0.0
13500 0.0
13600 0.0
13700 0.0
13800 0.0
13900 0.0
14000 0.0
14100 0.0
14200 0.0
14300 0.0
14400 0.0
14500 0.0
14600 0.0
14700 0.0
14800 0.0
14900 0.0
15000 0.0
