
# Total neutron yield = 0.0  n/decay
	 o16 0.0
	 o17 0.0
	 o18 0.0
# Integral of spectrum = 5.551217972735608e-09  n/decay
100 0.0
200 0.0
300 0.0
400 0.0
500 0.0
600 0.0
700 0.0
800 0.0
900 0.0
1000 0.0
1100 0.0
1200 0.0
1300 0.0
1400 0.0
1500 0.0
1600 0.0
1700 0.0
1800 0.0
1900 0.0
2000 0.0
2100 0.0
2200 0.0
2300 0.0
2400 0.0
2500 0.0
2600 0.0
2700 0.0
2800 0.0
2900 0.0
3000 0.0
3100 0.0
3200 0.0
3300 0.0
3400 0.0
3500 0.0
3600 0.0
3700 0.0
3800 0.0
3900 0.0
4000 0.0
4100 2.191712115780898e-15
4200 1.7978092720559065e-14
4300 5.1753955785215404e-14
4400 1.0880156188508625e-13
4500 2.036401415482458e-13
4600 3.034565326762197e-13
4700 4.3354442154542837e-13
4800 7.151086102455803e-13
4900 9.070819411005683e-13
5000 1.2488613364057975e-12
5100 1.7366792330602864e-12
5200 2.1338971066456647e-12
5300 2.5615166664933504e-12
5400 2.819295930931592e-12
5500 2.9924676204837384e-12
5600 3.1499455455513857e-12
5700 3.1954200174551303e-12
5800 3.1649004296169435e-12
5900 3.112224495599747e-12
6000 3.0321977989618082e-12
6100 2.9377122575891314e-12
6200 2.7834902004868e-12
6300 2.620798337444706e-12
6400 2.4256795355263894e-12
6500 2.1812002481787274e-12
6600 2.0129252428780118e-12
6700 1.8305102496584796e-12
6800 1.6117590982272212e-12
6900 1.3662786780701252e-12
7000 1.0808582092663071e-12
7100 8.85626365437158e-13
7200 6.281946204903917e-13
7300 4.5453981232212506e-13
7400 3.4339598611508275e-13
7500 2.1560263151935658e-13
7600 1.5736987098364094e-13
7700 7.021928862355123e-14
7800 1.505594371073778e-14
7900 0.0
8000 0.0
8100 0.0
8200 0.0
8300 0.0
8400 0.0
8500 0.0
8600 0.0
8700 0.0
8800 0.0
8900 0.0
9000 0.0
9100 0.0
9200 0.0
9300 0.0
9400 0.0
9500 0.0
9600 0.0
9700 0.0
9800 0.0
9900 0.0
10000 0.0
10100 0.0
10200 0.0
10300 0.0
10400 0.0
10500 0.0
10600 0.0
10700 0.0
10800 0.0
10900 0.0
11000 0.0
11100 0.0
11200 0.0
11300 0.0
11400 0.0
11500 0.0
11600 0.0
11700 0.0
11800 0.0
11900 0.0
12000 0.0
12100 0.0
12200 0.0
12300 0.0
12400 0.0
12500 0.0
12600 0.0
12700 0.0
12800 0.0
12900 0.0
13000 0.0
13100 0.0
13200 0.0
13300 0.0
13400 0.0
13500 0.0
13600 0.0
13700 0.0
13800 0.0
13900 0.0
14000 0.0
14100 0.0
14200 0.0
14300 0.0
14400 0.0
14500 0.0
14600 0.0
14700 0.0
14800 0.0
14900 0.0
15000 0.0
