
# Total neutron yield = 0.0  n/decay
	 o16 0.0
	 o17 0.0
	 o18 0.0
# Integral of spectrum = 1.9281346845670727e-08  n/decay
100 0.0
200 0.0
300 0.0
400 0.0
500 0.0
600 0.0
700 0.0
800 0.0
900 0.0
1000 0.0
1100 0.0
1200 0.0
1300 0.0
1400 0.0
1500 0.0
1600 0.0
1700 0.0
1800 0.0
1900 0.0
2000 0.0
2100 0.0
2200 0.0
2300 0.0
2400 0.0
2500 0.0
2600 0.0
2700 0.0
2800 0.0
2900 0.0
3000 0.0
3100 0.0
3200 0.0
3300 0.0
3400 0.0
3500 0.0
3600 0.0
3700 0.0
3800 0.0
3900 0.0
4000 0.0
4100 0.0
4200 0.0
4300 0.0
4400 2.6180559594013768e-20
4500 2.1841013703652377e-16
4600 1.1048065063669557e-15
4700 4.890861428366695e-15
4800 1.14907378505143e-14
4900 3.1225763697444967e-14
5000 4.9386218821463514e-14
5100 7.345491194647248e-14
5200 2.9970745715306715e-13
5300 4.589341233476876e-13
5400 7.126159125983502e-13
5500 9.35303539984613e-13
5600 1.2359130663627167e-12
5700 1.6673328614515148e-12
5800 2.1821733546748574e-12
5900 3.0660136379052513e-12
6000 4.075723554063842e-12
6100 4.747733020978872e-12
6200 5.495986217776337e-12
6300 6.681148439311752e-12
6400 7.582576636627317e-12
6500 8.633843950037906e-12
6600 9.075902094415208e-12
6700 9.492563654274192e-12
6800 9.67236236712419e-12
6900 9.6528518631051e-12
7000 9.317995147818013e-12
7100 9.08976594298572e-12
7200 8.796876988612492e-12
7300 8.45026312272162e-12
7400 8.078810742950678e-12
7500 7.8235807423091e-12
7600 7.357100700682183e-12
7700 6.784210824428647e-12
7800 6.306961274901202e-12
7900 5.621121727988152e-12
8000 5.138276349960921e-12
8100 4.702036648055747e-12
8200 4.198589932993691e-12
8300 3.599468777277019e-12
8400 2.9171617229364544e-12
8500 2.494853507382026e-12
8600 1.8904874787552482e-12
8700 1.3894488372116428e-12
8800 1.1198015192269235e-12
8900 8.282451115823318e-13
9000 5.897068391481671e-13
9100 3.5373989774411813e-13
9200 1.245071312741637e-13
9300 0.0
9400 0.0
9500 0.0
9600 0.0
9700 0.0
9800 0.0
9900 0.0
10000 0.0
10100 0.0
10200 0.0
10300 0.0
10400 0.0
10500 0.0
10600 0.0
10700 0.0
10800 0.0
10900 0.0
11000 0.0
11100 0.0
11200 0.0
11300 0.0
11400 0.0
11500 0.0
11600 0.0
11700 0.0
11800 0.0
11900 0.0
12000 0.0
12100 0.0
12200 0.0
12300 0.0
12400 0.0
12500 0.0
12600 0.0
12700 0.0
12800 0.0
12900 0.0
13000 0.0
13100 0.0
13200 0.0
13300 0.0
13400 0.0
13500 0.0
13600 0.0
13700 0.0
13800 0.0
13900 0.0
14000 0.0
14100 0.0
14200 0.0
14300 0.0
14400 0.0
14500 0.0
14600 0.0
14700 0.0
14800 0.0
14900 0.0
15000 0.0
