
# Total neutron yield = 0.0  n/decay
	 na23 0.0
# Integral of spectrum = 2.038463907620799e-07  n/decay
100 0.0
200 0.0
300 0.0
400 0.0
500 0.0
600 0.0
700 0.0
800 0.0
900 0.0
1000 0.0
1100 0.0
1200 0.0
1300 0.0
1400 0.0
1500 0.0
1600 0.0
1700 0.0
1800 0.0
1900 0.0
2000 0.0
2100 0.0
2200 0.0
2300 0.0
2400 0.0
2500 0.0
2600 0.0
2700 0.0
2800 0.0
2900 0.0
3000 0.0
3100 0.0
3200 0.0
3300 0.0
3400 0.0
3500 0.0
3600 0.0
3700 0.0
3800 0.0
3900 0.0
4000 0.0
4100 0.0
4200 0.0
4300 0.0
4400 0.0
4500 0.0
4600 0.0
4700 0.0
4800 0.0
4900 0.0
5000 0.0
5100 0.0
5200 0.0
5300 0.0
5400 0.0
5500 0.0
5600 0.0
5700 7.82402785765536e-14
5800 3.714436823762725e-12
5900 1.4291618301944487e-11
6000 3.240843424507281e-11
6100 5.174766400774404e-11
6200 7.876341186493553e-11
6300 1.1081065637278168e-10
6400 1.3108933810338427e-10
6500 1.365162013440341e-10
6600 1.3957239227015675e-10
6700 1.4064073785879693e-10
6800 1.4000715003214805e-10
6900 1.3788695309581674e-10
7000 1.3443895201694342e-10
7100 1.2977934790819275e-10
7200 1.2369679632743537e-10
7300 1.14642557729216e-10
7400 1.0331108079301121e-10
7500 8.969858912529905e-11
7600 7.435600367602436e-11
7700 6.048788924766889e-11
7800 4.561383641831068e-11
7900 2.8725329979303117e-11
8000 1.3336458428120451e-11
8100 2.849831372119586e-12
8200 0.0
8300 0.0
8400 0.0
8500 0.0
8600 0.0
8700 0.0
8800 0.0
8900 0.0
9000 0.0
9100 0.0
9200 0.0
9300 0.0
9400 0.0
9500 0.0
9600 0.0
9700 0.0
9800 0.0
9900 0.0
10000 0.0
10100 0.0
10200 0.0
10300 0.0
10400 0.0
10500 0.0
10600 0.0
10700 0.0
10800 0.0
10900 0.0
11000 0.0
11100 0.0
11200 0.0
11300 0.0
11400 0.0
11500 0.0
11600 0.0
11700 0.0
11800 0.0
11900 0.0
12000 0.0
12100 0.0
12200 0.0
12300 0.0
12400 0.0
12500 0.0
12600 0.0
12700 0.0
12800 0.0
12900 0.0
13000 0.0
13100 0.0
13200 0.0
13300 0.0
13400 0.0
13500 0.0
13600 0.0
13700 0.0
13800 0.0
13900 0.0
14000 0.0
14100 0.0
14200 0.0
14300 0.0
14400 0.0
14500 0.0
14600 0.0
14700 0.0
14800 0.0
14900 0.0
15000 0.0
