
# Total neutron yield = 0.0  n/decay
	 na23 0.0
# Integral of spectrum = 5.360541940040432e-07  n/decay
100 0.0
200 0.0
300 0.0
400 0.0
500 0.0
600 0.0
700 0.0
800 0.0
900 0.0
1000 0.0
1100 0.0
1200 0.0
1300 0.0
1400 0.0
1500 0.0
1600 0.0
1700 0.0
1800 0.0
1900 0.0
2000 0.0
2100 0.0
2200 0.0
2300 0.0
2400 0.0
2500 0.0
2600 0.0
2700 0.0
2800 0.0
2900 0.0
3000 0.0
3100 0.0
3200 0.0
3300 0.0
3400 0.0
3500 0.0
3600 0.0
3700 0.0
3800 0.0
3900 0.0
4000 0.0
4100 0.0
4200 0.0
4300 0.0
4400 0.0
4500 0.0
4600 0.0
4700 0.0
4800 0.0
4900 0.0
5000 0.0
5100 0.0
5200 0.0
5300 0.0
5400 0.0
5500 0.0
5600 0.0
5700 0.0
5800 5.799740267251027e-12
5900 2.3150884708447455e-11
6000 4.972494564062188e-11
6100 8.93597988036548e-11
6200 1.4043445044257668e-10
6300 1.836884042092164e-10
6400 2.387507113119136e-10
6500 3.0500721409349433e-10
6600 3.4802604362084797e-10
6700 3.49581054492395e-10
6800 3.490390542469448e-10
6900 3.4664080988378417e-10
7000 3.4258039453977534e-10
7100 3.3701619991963606e-10
7200 3.2809380205297214e-10
7300 3.132468644302992e-10
7400 2.9433289499102915e-10
7500 2.7135946557890765e-10
7600 2.428005436238835e-10
7700 2.1231817515835115e-10
7800 1.7873326246684158e-10
7900 1.479985764484685e-10
8000 1.1770021997937556e-10
8100 8.533773070776627e-11
8200 4.6392976302072336e-11
8300 1.3427722119906015e-11
8400 0.0
8500 0.0
8600 0.0
8700 0.0
8800 0.0
8900 0.0
9000 0.0
9100 0.0
9200 0.0
9300 0.0
9400 0.0
9500 0.0
9600 0.0
9700 0.0
9800 0.0
9900 0.0
10000 0.0
10100 0.0
10200 0.0
10300 0.0
10400 0.0
10500 0.0
10600 0.0
10700 0.0
10800 0.0
10900 0.0
11000 0.0
11100 0.0
11200 0.0
11300 0.0
11400 0.0
11500 0.0
11600 0.0
11700 0.0
11800 0.0
11900 0.0
12000 0.0
12100 0.0
12200 0.0
12300 0.0
12400 0.0
12500 0.0
12600 0.0
12700 0.0
12800 0.0
12900 0.0
13000 0.0
13100 0.0
13200 0.0
13300 0.0
13400 0.0
13500 0.0
13600 0.0
13700 0.0
13800 0.0
13900 0.0
14000 0.0
14100 0.0
14200 0.0
14300 0.0
14400 0.0
14500 0.0
14600 0.0
14700 0.0
14800 0.0
14900 0.0
15000 0.0
