
# Total neutron yield = 0.0  n/decay
	 b10 0.0
	 b11 0.0
# Integral of spectrum = 3.267316601489698e-07  n/decay
100 0.0
200 0.0
300 0.0
400 0.0
500 0.0
600 0.0
700 0.0
800 0.0
900 0.0
1000 0.0
1100 0.0
1200 0.0
1300 0.0
1400 6.4929006387083824e-15
1500 3.3458315221019603e-13
1600 3.2168873739461955e-12
1700 4.309713154306421e-12
1800 5.346658943825385e-12
1900 7.345114030886074e-12
2000 8.478840816003443e-12
2100 1.0509670033436495e-11
2200 1.8679460418632995e-11
2300 2.8881675946164533e-11
2400 4.005509143766432e-11
2500 5.517774365242831e-11
2600 7.111737152421781e-11
2700 9.036045986833997e-11
2800 1.1350128445254574e-10
2900 1.353693683540432e-10
3000 1.5162561904032284e-10
3100 1.6001755477508582e-10
3200 1.677948910363027e-10
3300 1.6754802584158627e-10
3400 1.6451750967246074e-10
3500 1.6036862612358113e-10
3600 1.553395930927615e-10
3700 1.4948150503674718e-10
3800 1.4274803735811753e-10
3900 1.3495961607616398e-10
4000 1.2644194105719283e-10
4100 1.190587272625282e-10
4200 1.1172974427341194e-10
4300 1.039768585385929e-10
4400 9.569552764487064e-11
4500 8.730305761971029e-11
4600 7.926517188353791e-11
4700 7.185044008102654e-11
4800 6.399532997501496e-11
4900 5.590062765414488e-11
5000 4.8027999234491476e-11
5100 4.0041718483193595e-11
5200 3.203736418083622e-11
5300 2.4959640977850995e-11
5400 1.888796955722928e-11
5500 1.4131735081030268e-11
5600 1.0328047559531585e-11
5700 7.767963992073351e-12
5800 5.437474208195659e-12
5900 2.949702311755073e-12
6000 4.3816580106015685e-13
6100 0.0
6200 0.0
6300 0.0
6400 0.0
6500 0.0
6600 0.0
6700 0.0
6800 0.0
6900 0.0
7000 0.0
7100 0.0
7200 0.0
7300 0.0
7400 0.0
7500 0.0
7600 0.0
7700 0.0
7800 0.0
7900 0.0
8000 0.0
8100 0.0
8200 0.0
8300 0.0
8400 0.0
8500 0.0
8600 0.0
8700 0.0
8800 0.0
8900 0.0
9000 0.0
9100 0.0
9200 0.0
9300 0.0
9400 0.0
9500 0.0
9600 0.0
9700 0.0
9800 0.0
9900 0.0
10000 0.0
10100 0.0
10200 0.0
10300 0.0
10400 0.0
10500 0.0
10600 0.0
10700 0.0
10800 0.0
10900 0.0
11000 0.0
11100 0.0
11200 0.0
11300 0.0
11400 0.0
11500 0.0
11600 0.0
11700 0.0
11800 0.0
11900 0.0
12000 0.0
12100 0.0
12200 0.0
12300 0.0
12400 0.0
12500 0.0
12600 0.0
12700 0.0
12800 0.0
12900 0.0
13000 0.0
13100 0.0
13200 0.0
13300 0.0
13400 0.0
13500 0.0
13600 0.0
13700 0.0
13800 0.0
13900 0.0
14000 0.0
14100 0.0
14200 0.0
14300 0.0
14400 0.0
14500 0.0
14600 0.0
14700 0.0
14800 0.0
14900 0.0
15000 0.0
