
# Total neutron yield = 0.0  n/decay
	 b10 0.0
	 b11 0.0
# Integral of spectrum = 1.2312516545627595e-06  n/decay
100 3.1649060581830727e-12
200 7.069932492987058e-12
300 1.1182500357800048e-11
400 4.46966453936194e-11
500 2.7436308451877663e-10
600 4.777731923621695e-10
700 8.078997933069923e-10
800 1.2320412864235742e-09
900 1.1443112931682574e-09
1000 1.051909188852341e-09
1100 9.328383688232159e-10
1200 8.542551176441574e-10
1300 8.028016296905754e-10
1400 7.626353454489222e-10
1500 7.059036104256062e-10
1600 6.38596167570134e-10
1700 5.799190093336889e-10
1800 5.247764600355928e-10
1900 4.4853194784708715e-10
2000 3.6163637730898047e-10
2100 2.5310972236363666e-10
2200 1.1715806720691583e-10
2300 9.168372506390914e-11
2400 6.222041534622025e-11
2500 2.2832586524750288e-11
2600 2.036788164899162e-11
2700 1.8146502468546093e-11
2800 1.593513810006194e-11
2900 1.3541607473656845e-11
3000 1.117740626917372e-11
3100 9.15570338011594e-12
3200 6.502905448550738e-12
3300 3.627894746154758e-12
3400 7.511325242523702e-13
3500 0.0
3600 0.0
3700 0.0
3800 0.0
3900 0.0
4000 0.0
4100 0.0
4200 0.0
4300 0.0
4400 0.0
4500 0.0
4600 0.0
4700 0.0
4800 0.0
4900 0.0
5000 0.0
5100 0.0
5200 0.0
5300 0.0
5400 0.0
5500 0.0
5600 0.0
5700 0.0
5800 0.0
5900 0.0
6000 0.0
6100 0.0
6200 0.0
6300 0.0
6400 0.0
6500 0.0
6600 0.0
6700 0.0
6800 0.0
6900 0.0
7000 0.0
7100 0.0
7200 0.0
7300 0.0
7400 0.0
7500 0.0
7600 0.0
7700 0.0
7800 0.0
7900 0.0
8000 0.0
8100 0.0
8200 0.0
8300 0.0
8400 0.0
8500 0.0
8600 0.0
8700 0.0
8800 0.0
8900 0.0
9000 0.0
9100 0.0
9200 0.0
9300 0.0
9400 0.0
9500 0.0
9600 0.0
9700 0.0
9800 0.0
9900 0.0
10000 0.0
10100 0.0
10200 0.0
10300 0.0
10400 0.0
10500 0.0
10600 0.0
10700 0.0
10800 0.0
10900 0.0
11000 0.0
11100 0.0
11200 0.0
11300 0.0
11400 0.0
11500 0.0
11600 0.0
11700 0.0
11800 0.0
11900 0.0
12000 0.0
12100 0.0
12200 0.0
12300 0.0
12400 0.0
12500 0.0
12600 0.0
12700 0.0
12800 0.0
12900 0.0
13000 0.0
13100 0.0
13200 0.0
13300 0.0
13400 0.0
13500 0.0
13600 0.0
13700 0.0
13800 0.0
13900 0.0
14000 0.0
14100 0.0
14200 0.0
14300 0.0
14400 0.0
14500 0.0
14600 0.0
14700 0.0
14800 0.0
14900 0.0
15000 0.0
