
# Total neutron yield = 0.0  n/decay
	 c12 0.0
	 c13 0.0
# Integral of spectrum = 4.303689923464185e-07  n/decay
100 2.0431625847281145e-10
200 2.528584133377429e-10
300 3.840881256709273e-10
400 3.7342231720026275e-10
500 3.390161539889995e-10
600 3.0876508276809324e-10
700 2.7040547964162956e-10
800 2.3949439263555675e-10
900 2.1649854828642684e-10
1000 1.9971845869858808e-10
1100 1.774759664908753e-10
1200 1.4296797706172467e-10
1300 1.2805522465427262e-10
1400 1.1554587335661964e-10
1500 1.061755519077544e-10
1600 1.0059659995488148e-10
1700 8.904484980603029e-11
1800 7.737238287743865e-11
1900 6.732191048974332e-11
2000 5.948953565976398e-11
2100 5.446504399444791e-11
2200 4.9752574022915406e-11
2300 4.5397661753191724e-11
2400 4.109423431932611e-11
2500 3.738639590191461e-11
2600 3.39533557358196e-11
2700 3.074404696018762e-11
2800 2.746002627403151e-11
2900 2.4637782305319024e-11
3000 2.1750630547520926e-11
3100 1.9193546337872906e-11
3200 1.6700497521553306e-11
3300 1.4044556640669221e-11
3400 1.1680019701152788e-11
3500 9.146131473957905e-12
3600 6.885990068047994e-12
3700 4.461985531016781e-12
3800 2.3063414150973698e-12
3900 0.0
4000 0.0
4100 0.0
4200 0.0
4300 0.0
4400 0.0
4500 0.0
4600 0.0
4700 0.0
4800 0.0
4900 0.0
5000 0.0
5100 0.0
5200 0.0
5300 0.0
5400 0.0
5500 0.0
5600 0.0
5700 0.0
5800 0.0
5900 0.0
6000 0.0
6100 0.0
6200 0.0
6300 0.0
6400 0.0
6500 0.0
6600 0.0
6700 0.0
6800 0.0
6900 0.0
7000 0.0
7100 0.0
7200 0.0
7300 0.0
7400 0.0
7500 0.0
7600 0.0
7700 0.0
7800 0.0
7900 0.0
8000 0.0
8100 0.0
8200 0.0
8300 0.0
8400 0.0
8500 0.0
8600 0.0
8700 0.0
8800 0.0
8900 0.0
9000 0.0
9100 0.0
9200 0.0
9300 0.0
9400 0.0
9500 0.0
9600 0.0
9700 0.0
9800 0.0
9900 0.0
10000 0.0
10100 0.0
10200 0.0
10300 0.0
10400 0.0
10500 0.0
10600 0.0
10700 0.0
10800 0.0
10900 0.0
11000 0.0
11100 0.0
11200 0.0
11300 0.0
11400 0.0
11500 0.0
11600 0.0
11700 0.0
11800 0.0
11900 0.0
12000 0.0
12100 0.0
12200 0.0
12300 0.0
12400 0.0
12500 0.0
12600 0.0
12700 0.0
12800 0.0
12900 0.0
13000 0.0
13100 0.0
13200 0.0
13300 0.0
13400 0.0
13500 0.0
13600 0.0
13700 0.0
13800 0.0
13900 0.0
14000 0.0
14100 0.0
14200 0.0
14300 0.0
14400 0.0
14500 0.0
14600 0.0
14700 0.0
14800 0.0
14900 0.0
15000 0.0
