
# Total neutron yield = 0.0  n/decay
	 na23 0.0
# Integral of spectrum = 2.6911779530461254e-08  n/decay
100 0.0
200 0.0
300 0.0
400 0.0
500 0.0
600 0.0
700 0.0
800 0.0
900 0.0
1000 0.0
1100 0.0
1200 0.0
1300 0.0
1400 0.0
1500 0.0
1600 0.0
1700 0.0
1800 0.0
1900 0.0
2000 0.0
2100 0.0
2200 0.0
2300 0.0
2400 0.0
2500 0.0
2600 0.0
2700 0.0
2800 0.0
2900 0.0
3000 0.0
3100 0.0
3200 0.0
3300 0.0
3400 0.0
3500 0.0
3600 0.0
3700 0.0
3800 0.0
3900 0.0
4000 0.0
4100 0.0
4200 0.0
4300 0.0
4400 0.0
4500 0.0
4600 0.0
4700 0.0
4800 0.0
4900 0.0
5000 0.0
5100 0.0
5200 0.0
5300 0.0
5400 7.610566105164901e-13
5500 5.686463035250351e-12
5600 1.417605301981384e-11
5700 1.3864133704204502e-11
5800 1.3570034542372489e-11
5900 1.3292976123280792e-11
6000 1.3032122768768893e-11
6100 1.2786613839546208e-11
6200 1.2555586902540926e-11
6300 1.2338184493124325e-11
6400 1.2133602610849003e-11
6500 1.1941016328438826e-11
6600 1.1759670803953347e-11
6700 1.1588817156392377e-11
6800 1.1427777635823915e-11
6900 1.1275862907641947e-11
7000 1.1132444002327247e-11
7100 1.0996918805999831e-11
7200 1.0868718032029629e-11
7300 1.0747291760333204e-11
7400 1.0632116498950584e-11
7500 1.0522695321723509e-11
7600 9.877418180720006e-12
7700 7.729319198202984e-12
7800 4.420901021807319e-12
7900 0.0
8000 0.0
8100 0.0
8200 0.0
8300 0.0
8400 0.0
8500 0.0
8600 0.0
8700 0.0
8800 0.0
8900 0.0
9000 0.0
9100 0.0
9200 0.0
9300 0.0
9400 0.0
9500 0.0
9600 0.0
9700 0.0
9800 0.0
9900 0.0
10000 0.0
10100 0.0
10200 0.0
10300 0.0
10400 0.0
10500 0.0
10600 0.0
10700 0.0
10800 0.0
10900 0.0
11000 0.0
11100 0.0
11200 0.0
11300 0.0
11400 0.0
11500 0.0
11600 0.0
11700 0.0
11800 0.0
11900 0.0
12000 0.0
12100 0.0
12200 0.0
12300 0.0
12400 0.0
12500 0.0
12600 0.0
12700 0.0
12800 0.0
12900 0.0
13000 0.0
13100 0.0
13200 0.0
13300 0.0
13400 0.0
13500 0.0
13600 0.0
13700 0.0
13800 0.0
13900 0.0
14000 0.0
14100 0.0
14200 0.0
14300 0.0
14400 0.0
14500 0.0
14600 0.0
14700 0.0
14800 0.0
14900 0.0
15000 0.0
