
# Total neutron yield = 0.0  n/decay
	 na23 0.0
# Integral of spectrum = 6.501334741897218e-07  n/decay
100 0.0
200 0.0
300 0.0
400 0.0
500 0.0
600 0.0
700 0.0
800 0.0
900 0.0
1000 0.0
1100 0.0
1200 0.0
1300 0.0
1400 0.0
1500 0.0
1600 0.0
1700 0.0
1800 0.0
1900 0.0
2000 0.0
2100 0.0
2200 0.0
2300 0.0
2400 0.0
2500 0.0
2600 0.0
2700 0.0
2800 0.0
2900 0.0
3000 0.0
3100 0.0
3200 0.0
3300 0.0
3400 0.0
3500 0.0
3600 0.0
3700 0.0
3800 0.0
3900 0.0
4000 0.0
4100 0.0
4200 0.0
4300 0.0
4400 0.0
4500 0.0
4600 0.0
4700 0.0
4800 0.0
4900 0.0
5000 0.0
5100 0.0
5200 0.0
5300 0.0
5400 0.0
5500 6.434118717825081e-12
5600 2.5239156739046197e-11
5700 5.303714832454141e-11
5800 9.278208832957899e-11
5900 1.3314788013037824e-10
6000 1.7898076031861913e-10
6100 2.2335433542998323e-10
6200 2.729607708180739e-10
6300 3.2702674564030307e-10
6400 3.155803544788403e-10
6500 3.0566107869693546e-10
6600 2.97087681063021e-10
6700 2.897132899859372e-10
6800 2.834173651030297e-10
6900 2.7809876365124053e-10
7000 2.736716993100553e-10
7100 2.7006203090136697e-10
7200 2.6720534767521077e-10
7300 2.6504451535795807e-10
7400 2.635293126191331e-10
7500 2.6213043785348983e-10
7600 2.569099749411551e-10
7700 2.483153310593501e-10
7800 2.3594679214462923e-10
7900 2.1794594630243895e-10
8000 1.978151505978483e-10
8100 1.7354408748821832e-10
8200 1.5024113706387775e-10
8300 1.2299520071822444e-10
8400 9.688247191816998e-11
8500 6.942564358715764e-11
8600 3.819287028785783e-11
8700 8.955254643722343e-12
8800 0.0
8900 0.0
9000 0.0
9100 0.0
9200 0.0
9300 0.0
9400 0.0
9500 0.0
9600 0.0
9700 0.0
9800 0.0
9900 0.0
10000 0.0
10100 0.0
10200 0.0
10300 0.0
10400 0.0
10500 0.0
10600 0.0
10700 0.0
10800 0.0
10900 0.0
11000 0.0
11100 0.0
11200 0.0
11300 0.0
11400 0.0
11500 0.0
11600 0.0
11700 0.0
11800 0.0
11900 0.0
12000 0.0
12100 0.0
12200 0.0
12300 0.0
12400 0.0
12500 0.0
12600 0.0
12700 0.0
12800 0.0
12900 0.0
13000 0.0
13100 0.0
13200 0.0
13300 0.0
13400 0.0
13500 0.0
13600 0.0
13700 0.0
13800 0.0
13900 0.0
14000 0.0
14100 0.0
14200 0.0
14300 0.0
14400 0.0
14500 0.0
14600 0.0
14700 0.0
14800 0.0
14900 0.0
15000 0.0
