
# Total neutron yield = 0.0  n/decay
	 na23 0.0
# Integral of spectrum = 4.2529575976376257e-07  n/decay
100 0.0
200 0.0
300 0.0
400 0.0
500 0.0
600 0.0
700 0.0
800 0.0
900 0.0
1000 0.0
1100 0.0
1200 0.0
1300 0.0
1400 0.0
1500 0.0
1600 0.0
1700 0.0
1800 0.0
1900 0.0
2000 0.0
2100 0.0
2200 0.0
2300 0.0
2400 0.0
2500 0.0
2600 0.0
2700 0.0
2800 0.0
2900 0.0
3000 0.0
3100 0.0
3200 0.0
3300 0.0
3400 0.0
3500 0.0
3600 0.0
3700 0.0
3800 0.0
3900 0.0
4000 0.0
4100 0.0
4200 0.0
4300 0.0
4400 0.0
4500 0.0
4600 0.0
4700 0.0
4800 0.0
4900 0.0
5000 0.0
5100 0.0
5200 0.0
5300 0.0
5400 0.0
5500 1.217307284228242e-12
5600 8.244551570605508e-12
5700 1.876481108576192e-11
5800 3.416236048551133e-11
5900 5.175766210589675e-11
6000 7.148136547123046e-11
6100 8.994505574495558e-11
6200 1.1027574573824683e-10
6300 1.2861233958183894e-10
6400 1.4760271981285013e-10
6500 1.6412514775738655e-10
6600 1.813651586708904e-10
6700 1.9607136710255638e-10
6800 1.998471667890771e-10
6900 1.941003064997996e-10
7000 1.8921308959617283e-10
7100 1.850945449290922e-10
7200 1.8166841198265735e-10
7300 1.7886817571978934e-10
7400 1.7663806034918198e-10
7500 1.7403315317062619e-10
7600 1.6929887155057033e-10
7700 1.6367771636368797e-10
7800 1.5688597016561216e-10
7900 1.479922410726526e-10
8000 1.3854148218305283e-10
8100 1.2736133739443666e-10
8200 1.170647655568279e-10
8300 1.0657080384408381e-10
8400 9.465983391229895e-11
8500 8.361102133740404e-11
8600 7.139086705540315e-11
8700 6.047664004737409e-11
8800 4.847510814329589e-11
8900 3.767265919126476e-11
9000 2.6872662294455646e-11
9100 1.501376457434774e-11
9200 4.303351502500352e-12
9300 0.0
9400 0.0
9500 0.0
9600 0.0
9700 0.0
9800 0.0
9900 0.0
10000 0.0
10100 0.0
10200 0.0
10300 0.0
10400 0.0
10500 0.0
10600 0.0
10700 0.0
10800 0.0
10900 0.0
11000 0.0
11100 0.0
11200 0.0
11300 0.0
11400 0.0
11500 0.0
11600 0.0
11700 0.0
11800 0.0
11900 0.0
12000 0.0
12100 0.0
12200 0.0
12300 0.0
12400 0.0
12500 0.0
12600 0.0
12700 0.0
12800 0.0
12900 0.0
13000 0.0
13100 0.0
13200 0.0
13300 0.0
13400 0.0
13500 0.0
13600 0.0
13700 0.0
13800 0.0
13900 0.0
14000 0.0
14100 0.0
14200 0.0
14300 0.0
14400 0.0
14500 0.0
14600 0.0
14700 0.0
14800 0.0
14900 0.0
15000 0.0
