
# Total neutron yield = 0.0  n/decay
	 na23 0.0
# Integral of spectrum = 3.273075215872573e-07  n/decay
100 0.0
200 0.0
300 0.0
400 0.0
500 0.0
600 0.0
700 0.0
800 0.0
900 0.0
1000 0.0
1100 0.0
1200 0.0
1300 0.0
1400 0.0
1500 0.0
1600 0.0
1700 0.0
1800 0.0
1900 0.0
2000 0.0
2100 0.0
2200 0.0
2300 0.0
2400 0.0
2500 0.0
2600 0.0
2700 0.0
2800 0.0
2900 0.0
3000 0.0
3100 0.0
3200 0.0
3300 0.0
3400 0.0
3500 0.0
3600 0.0
3700 0.0
3800 0.0
3900 0.0
4000 0.0
4100 0.0
4200 0.0
4300 0.0
4400 0.0
4500 0.0
4600 0.0
4700 0.0
4800 0.0
4900 0.0
5000 0.0
5100 0.0
5200 0.0
5300 0.0
5400 0.0
5500 1.2621510961126256e-12
5600 5.741374824078185e-12
5700 1.4913658139565747e-11
5800 2.5329244562820963e-11
5900 3.784632077454977e-11
6000 5.054999752492095e-11
6100 6.479411719571188e-11
6200 7.737001098480334e-11
6300 9.063973041348494e-11
6400 1.0234058233626189e-10
6500 1.1439969136846282e-10
6600 1.2459731856851131e-10
6700 1.3518498406798804e-10
6800 1.4406870202544916e-10
6900 1.5329531421383107e-10
7000 1.48319368867999e-10
7100 1.442971498581608e-10
7200 1.410875259511709e-10
7300 1.3858309459373043e-10
7400 1.3670119650076526e-10
7500 1.338527693185423e-10
7600 1.302197260725027e-10
7700 1.254113285733856e-10
7800 1.1920517019876492e-10
7900 1.1317449446844786e-10
8000 1.0675076538871655e-10
8100 9.910488341006757e-11
8200 9.171725422023606e-11
8300 8.341731083564094e-11
8400 7.602239382948808e-11
8500 6.866585554030654e-11
8600 6.047221987435364e-11
8700 5.3109599289268614e-11
8800 4.503797645659465e-11
8900 3.7910530579812416e-11
9000 3.0076286346559204e-11
9100 2.3084665492746412e-11
9200 1.6109625126587507e-11
9300 8.410826982171963e-12
9400 0.0
9500 0.0
9600 0.0
9700 0.0
9800 0.0
9900 0.0
10000 0.0
10100 0.0
10200 0.0
10300 0.0
10400 0.0
10500 0.0
10600 0.0
10700 0.0
10800 0.0
10900 0.0
11000 0.0
11100 0.0
11200 0.0
11300 0.0
11400 0.0
11500 0.0
11600 0.0
11700 0.0
11800 0.0
11900 0.0
12000 0.0
12100 0.0
12200 0.0
12300 0.0
12400 0.0
12500 0.0
12600 0.0
12700 0.0
12800 0.0
12900 0.0
13000 0.0
13100 0.0
13200 0.0
13300 0.0
13400 0.0
13500 0.0
13600 0.0
13700 0.0
13800 0.0
13900 0.0
14000 0.0
14100 0.0
14200 0.0
14300 0.0
14400 0.0
14500 0.0
14600 0.0
14700 0.0
14800 0.0
14900 0.0
15000 0.0
