
# Total neutron yield = 0.0  n/decay
	 na23 0.0
# Integral of spectrum = 5.397437193161164e-07  n/decay
100 0.0
200 0.0
300 0.0
400 0.0
500 0.0
600 0.0
700 0.0
800 0.0
900 0.0
1000 0.0
1100 0.0
1200 0.0
1300 0.0
1400 0.0
1500 0.0
1600 0.0
1700 0.0
1800 0.0
1900 0.0
2000 0.0
2100 0.0
2200 0.0
2300 0.0
2400 0.0
2500 0.0
2600 0.0
2700 0.0
2800 0.0
2900 0.0
3000 0.0
3100 0.0
3200 0.0
3300 0.0
3400 0.0
3500 0.0
3600 0.0
3700 0.0
3800 0.0
3900 0.0
4000 0.0
4100 0.0
4200 0.0
4300 0.0
4400 0.0
4500 0.0
4600 0.0
4700 0.0
4800 0.0
4900 0.0
5000 0.0
5100 0.0
5200 0.0
5300 0.0
5400 0.0
5500 1.9760014505185127e-12
5600 1.0968105676218702e-11
5700 2.8500434960345408e-11
5800 4.9928855469055746e-11
5900 7.515875413463831e-11
6000 1.0043302755002511e-10
6100 1.2956116660052018e-10
6200 1.5606478259423028e-10
6300 1.8411654673217638e-10
6400 2.0928231241783453e-10
6500 2.3592896027249956e-10
6600 2.6150343814934416e-10
6700 2.5359554425527295e-10
6800 2.468099312148894e-10
6900 2.409972660854487e-10
7000 2.3603925445858365e-10
7100 2.3184248378244326e-10
7200 2.2833144483403841e-10
7300 2.254445398827807e-10
7400 2.2313018077561095e-10
7500 2.2061929971328916e-10
7600 2.1594058781844614e-10
7700 2.0889122287552157e-10
7800 1.9834301988258036e-10
7900 1.8657015172451661e-10
8000 1.7265906849424505e-10
8100 1.5916891578631379e-10
8200 1.4483566191367282e-10
8300 1.2796902308886338e-10
8400 1.1215245974530872e-10
8500 9.469927358085161e-11
8600 7.887414182878705e-11
8700 6.130568779739432e-11
8800 4.526052003616239e-11
8900 2.915897876882666e-11
9000 1.137614880990887e-11
9100 0.0
9200 0.0
9300 0.0
9400 0.0
9500 0.0
9600 0.0
9700 0.0
9800 0.0
9900 0.0
10000 0.0
10100 0.0
10200 0.0
10300 0.0
10400 0.0
10500 0.0
10600 0.0
10700 0.0
10800 0.0
10900 0.0
11000 0.0
11100 0.0
11200 0.0
11300 0.0
11400 0.0
11500 0.0
11600 0.0
11700 0.0
11800 0.0
11900 0.0
12000 0.0
12100 0.0
12200 0.0
12300 0.0
12400 0.0
12500 0.0
12600 0.0
12700 0.0
12800 0.0
12900 0.0
13000 0.0
13100 0.0
13200 0.0
13300 0.0
13400 0.0
13500 0.0
13600 0.0
13700 0.0
13800 0.0
13900 0.0
14000 0.0
14100 0.0
14200 0.0
14300 0.0
14400 0.0
14500 0.0
14600 0.0
14700 0.0
14800 0.0
14900 0.0
15000 0.0
