
# Total neutron yield = 0.0  n/decay
	 na23 0.0
# Integral of spectrum = 3.0733561204622784e-07  n/decay
100 0.0
200 0.0
300 0.0
400 0.0
500 0.0
600 0.0
700 0.0
800 0.0
900 0.0
1000 0.0
1100 0.0
1200 0.0
1300 0.0
1400 0.0
1500 0.0
1600 0.0
1700 0.0
1800 0.0
1900 0.0
2000 0.0
2100 0.0
2200 0.0
2300 0.0
2400 0.0
2500 0.0
2600 0.0
2700 0.0
2800 0.0
2900 0.0
3000 0.0
3100 0.0
3200 0.0
3300 0.0
3400 0.0
3500 0.0
3600 0.0
3700 0.0
3800 0.0
3900 0.0
4000 0.0
4100 0.0
4200 0.0
4300 0.0
4400 0.0
4500 0.0
4600 0.0
4700 0.0
4800 0.0
4900 0.0
5000 0.0
5100 0.0
5200 0.0
5300 0.0
5400 0.0
5500 1.6708706532471923e-12
5600 8.295886176802967e-12
5700 2.0195397589661358e-11
5800 3.327007506224449e-11
5900 4.924337486232536e-11
6000 6.56849020645639e-11
6100 8.363574940332478e-11
6200 9.962088122212704e-11
6300 1.1650237754995228e-10
6400 1.3138958263081727e-10
6500 1.4671946352075025e-10
6600 1.469075088558794e-10
6700 1.424177429565499e-10
6800 1.3856316743307525e-10
6900 1.3527943265537236e-10
7000 1.325113775468966e-10
7100 1.3021119619089475e-10
7200 1.2833755021547687e-10
7300 1.268544940299948e-10
7400 1.2573104303893237e-10
7500 1.2455434290563527e-10
7600 1.2190652623749446e-10
7700 1.1706174354190953e-10
7800 1.110474613844194e-10
7900 1.0433645656879423e-10
8000 9.61325714848414e-11
8100 8.796044559977309e-11
8200 7.804373707722763e-11
8300 6.854514110650756e-11
8400 5.903931263732927e-11
8500 4.848437361887351e-11
8600 3.8878779341928275e-11
8700 2.8152172759169743e-11
8800 1.8422510727738466e-11
8900 7.748471811747788e-12
9000 0.0
9100 0.0
9200 0.0
9300 0.0
9400 0.0
9500 0.0
9600 0.0
9700 0.0
9800 0.0
9900 0.0
10000 0.0
10100 0.0
10200 0.0
10300 0.0
10400 0.0
10500 0.0
10600 0.0
10700 0.0
10800 0.0
10900 0.0
11000 0.0
11100 0.0
11200 0.0
11300 0.0
11400 0.0
11500 0.0
11600 0.0
11700 0.0
11800 0.0
11900 0.0
12000 0.0
12100 0.0
12200 0.0
12300 0.0
12400 0.0
12500 0.0
12600 0.0
12700 0.0
12800 0.0
12900 0.0
13000 0.0
13100 0.0
13200 0.0
13300 0.0
13400 0.0
13500 0.0
13600 0.0
13700 0.0
13800 0.0
13900 0.0
14000 0.0
14100 0.0
14200 0.0
14300 0.0
14400 0.0
14500 0.0
14600 0.0
14700 0.0
14800 0.0
14900 0.0
15000 0.0
