
# Total neutron yield = 0.0  n/decay
	 na23 0.0
# Integral of spectrum = 1.0367493971030129e-06  n/decay
100 0.0
200 0.0
300 0.0
400 0.0
500 0.0
600 0.0
700 0.0
800 0.0
900 0.0
1000 0.0
1100 0.0
1200 0.0
1300 0.0
1400 0.0
1500 0.0
1600 0.0
1700 0.0
1800 0.0
1900 0.0
2000 0.0
2100 0.0
2200 0.0
2300 0.0
2400 0.0
2500 0.0
2600 0.0
2700 0.0
2800 0.0
2900 0.0
3000 0.0
3100 0.0
3200 0.0
3300 0.0
3400 0.0
3500 0.0
3600 0.0
3700 0.0
3800 0.0
3900 0.0
4000 0.0
4100 0.0
4200 0.0
4300 0.0
4400 0.0
4500 0.0
4600 0.0
4700 0.0
4800 0.0
4900 0.0
5000 0.0
5100 0.0
5200 0.0
5300 0.0
5400 0.0
5500 1.864438220182984e-12
5600 2.1996203619292144e-11
5700 5.879297973811744e-11
5800 8.107783083349431e-11
5900 1.1183538774785318e-10
6000 1.4218773643798287e-10
6100 1.766864947165169e-10
6200 2.0997914773812848e-10
6300 2.460366588913242e-10
6400 2.7832653139299434e-10
6500 3.1287102857545696e-10
6600 3.43691006034319e-10
6700 3.761408242414946e-10
6800 4.045361451358587e-10
6900 4.3473665155964125e-10
7000 4.611028234429368e-10
7100 4.784390361265768e-10
7200 4.671314956990021e-10
7300 4.577130868933021e-10
7400 4.497699466875665e-10
7500 4.364695670925687e-10
7600 4.148534966389696e-10
7700 3.907949059015107e-10
7800 3.742304628580204e-10
7900 3.56540536660183e-10
8000 3.3591624951775475e-10
8100 3.166957090737781e-10
8200 2.970959617303166e-10
8300 2.749502294471714e-10
8400 2.5425160155821613e-10
8500 2.3142018705524974e-10
8600 2.1095824935278108e-10
8700 1.9065377903271804e-10
8800 1.6826509690989835e-10
8900 1.48091616016172e-10
9000 1.2599993355576765e-10
9100 1.0628261594785893e-10
9200 8.460337378333749e-11
9300 6.509199740566107e-11
9400 4.5545484543509165e-11
9500 2.38674632166406e-11
9600 0.0
9700 0.0
9800 0.0
9900 0.0
10000 0.0
10100 0.0
10200 0.0
10300 0.0
10400 0.0
10500 0.0
10600 0.0
10700 0.0
10800 0.0
10900 0.0
11000 0.0
11100 0.0
11200 0.0
11300 0.0
11400 0.0
11500 0.0
11600 0.0
11700 0.0
11800 0.0
11900 0.0
12000 0.0
12100 0.0
12200 0.0
12300 0.0
12400 0.0
12500 0.0
12600 0.0
12700 0.0
12800 0.0
12900 0.0
13000 0.0
13100 0.0
13200 0.0
13300 0.0
13400 0.0
13500 0.0
13600 0.0
13700 0.0
13800 0.0
13900 0.0
14000 0.0
14100 0.0
14200 0.0
14300 0.0
14400 0.0
14500 0.0
14600 0.0
14700 0.0
14800 0.0
14900 0.0
15000 0.0
