
# Total neutron yield = 0.0  n/decay
	 na23 0.0
# Integral of spectrum = 1.3297751445213716e-06  n/decay
100 0.0
200 0.0
300 0.0
400 0.0
500 0.0
600 0.0
700 0.0
800 0.0
900 0.0
1000 0.0
1100 0.0
1200 0.0
1300 0.0
1400 0.0
1500 0.0
1600 0.0
1700 0.0
1800 0.0
1900 0.0
2000 0.0
2100 0.0
2200 0.0
2300 0.0
2400 0.0
2500 0.0
2600 0.0
2700 0.0
2800 0.0
2900 0.0
3000 0.0
3100 0.0
3200 0.0
3300 0.0
3400 0.0
3500 0.0
3600 0.0
3700 0.0
3800 0.0
3900 0.0
4000 0.0
4100 0.0
4200 0.0
4300 0.0
4400 0.0
4500 0.0
4600 0.0
4700 0.0
4800 0.0
4900 0.0
5000 0.0
5100 0.0
5200 0.0
5300 0.0
5400 0.0
5500 2.813222672897852e-13
5600 1.989175654268275e-11
5700 6.533540294501444e-11
5800 1.3068280626826608e-10
5900 1.7572843688318314e-10
6000 2.0878345377486164e-10
6100 2.418481132349376e-10
6200 2.782973406051553e-10
6300 3.1220515279036176e-10
6400 3.4954638913064723e-10
6500 3.8287618896898157e-10
6600 4.1853745311259017e-10
6700 4.5033764043903004e-10
6800 4.842844740443184e-10
6900 5.13961918111229e-10
7000 5.456720595107809e-10
7100 5.734473939096267e-10
7200 6.032872840652068e-10
7300 6.039527746151289e-10
7400 5.915373514444734e-10
7500 5.729887223355313e-10
7600 5.453348606179874e-10
7700 5.073588150589809e-10
7800 4.676734637550213e-10
7900 4.2947863979549116e-10
8000 4.084897440533219e-10
8100 3.840521959936808e-10
8200 3.613610498708393e-10
8300 3.388562767396455e-10
8400 3.1415393595511976e-10
8500 2.916626310131593e-10
8600 2.667273155665113e-10
8700 2.444285209012269e-10
8800 2.2245169892919277e-10
8900 1.9838015262581456e-10
9000 1.7683841759940148e-10
9100 1.5310464638014716e-10
9200 1.3198493869305226e-10
9300 1.0880503400583997e-10
9400 8.805067946410937e-11
9500 6.732835911275334e-11
9600 4.433894815485967e-11
9700 2.3407685928263248e-11
9800 0.0
9900 0.0
10000 0.0
10100 0.0
10200 0.0
10300 0.0
10400 0.0
10500 0.0
10600 0.0
10700 0.0
10800 0.0
10900 0.0
11000 0.0
11100 0.0
11200 0.0
11300 0.0
11400 0.0
11500 0.0
11600 0.0
11700 0.0
11800 0.0
11900 0.0
12000 0.0
12100 0.0
12200 0.0
12300 0.0
12400 0.0
12500 0.0
12600 0.0
12700 0.0
12800 0.0
12900 0.0
13000 0.0
13100 0.0
13200 0.0
13300 0.0
13400 0.0
13500 0.0
13600 0.0
13700 0.0
13800 0.0
13900 0.0
14000 0.0
14100 0.0
14200 0.0
14300 0.0
14400 0.0
14500 0.0
14600 0.0
14700 0.0
14800 0.0
14900 0.0
15000 0.0
