
# Total neutron yield = 0.0  n/decay
	 na23 0.0
# Integral of spectrum = 1.9115515915410216e-08  n/decay
100 0.0
200 0.0
300 0.0
400 0.0
500 0.0
600 0.0
700 0.0
800 0.0
900 0.0
1000 0.0
1100 0.0
1200 0.0
1300 0.0
1400 0.0
1500 0.0
1600 0.0
1700 0.0
1800 0.0
1900 0.0
2000 0.0
2100 0.0
2200 0.0
2300 0.0
2400 0.0
2500 0.0
2600 0.0
2700 0.0
2800 0.0
2900 0.0
3000 0.0
3100 0.0
3200 0.0
3300 0.0
3400 0.0
3500 0.0
3600 0.0
3700 0.0
3800 0.0
3900 0.0
4000 0.0
4100 0.0
4200 0.0
4300 0.0
4400 0.0
4500 0.0
4600 0.0
4700 0.0
4800 0.0
4900 0.0
5000 0.0
5100 0.0
5200 0.0
5300 0.0
5400 1.3852542702438515e-14
5500 5.76544498691743e-13
5600 1.6100007947104454e-12
5700 3.1943974448597134e-12
5800 5.102130530581378e-12
5900 7.388222863299675e-12
6000 9.675484440934322e-12
6100 9.498682099243582e-12
6200 9.322416759694994e-12
6300 9.150538305667854e-12
6400 8.985350293687383e-12
6500 8.828104831512781e-12
6600 8.679348648014364e-12
6700 8.53916415563299e-12
6800 8.407357601499622e-12
6900 8.283534347254713e-12
7000 8.167204593400651e-12
7100 8.057800562855312e-12
7200 7.954695718535924e-12
7300 7.857218397079546e-12
7400 7.764635001622088e-12
7500 7.675655530781052e-12
7600 7.43065112270957e-12
7700 6.913319725428676e-12
7800 6.269464663857842e-12
7900 5.38663439399531e-12
8000 4.415967699020871e-12
8100 3.180163847638295e-12
8200 2.002414529292966e-12
8300 8.242032098960764e-13
8400 0.0
8500 0.0
8600 0.0
8700 0.0
8800 0.0
8900 0.0
9000 0.0
9100 0.0
9200 0.0
9300 0.0
9400 0.0
9500 0.0
9600 0.0
9700 0.0
9800 0.0
9900 0.0
10000 0.0
10100 0.0
10200 0.0
10300 0.0
10400 0.0
10500 0.0
10600 0.0
10700 0.0
10800 0.0
10900 0.0
11000 0.0
11100 0.0
11200 0.0
11300 0.0
11400 0.0
11500 0.0
11600 0.0
11700 0.0
11800 0.0
11900 0.0
12000 0.0
12100 0.0
12200 0.0
12300 0.0
12400 0.0
12500 0.0
12600 0.0
12700 0.0
12800 0.0
12900 0.0
13000 0.0
13100 0.0
13200 0.0
13300 0.0
13400 0.0
13500 0.0
13600 0.0
13700 0.0
13800 0.0
13900 0.0
14000 0.0
14100 0.0
14200 0.0
14300 0.0
14400 0.0
14500 0.0
14600 0.0
14700 0.0
14800 0.0
14900 0.0
15000 0.0
