
# Total neutron yield = 0.0  n/decay
	 na23 0.0
# Integral of spectrum = 1.4231746630672596e-06  n/decay
100 0.0
200 0.0
300 0.0
400 0.0
500 0.0
600 0.0
700 0.0
800 0.0
900 0.0
1000 0.0
1100 0.0
1200 0.0
1300 0.0
1400 0.0
1500 0.0
1600 0.0
1700 0.0
1800 0.0
1900 0.0
2000 0.0
2100 0.0
2200 0.0
2300 0.0
2400 0.0
2500 0.0
2600 0.0
2700 0.0
2800 0.0
2900 0.0
3000 0.0
3100 0.0
3200 0.0
3300 0.0
3400 0.0
3500 0.0
3600 0.0
3700 0.0
3800 0.0
3900 0.0
4000 0.0
4100 0.0
4200 0.0
4300 0.0
4400 0.0
4500 0.0
4600 0.0
4700 0.0
4800 0.0
4900 0.0
5000 0.0
5100 0.0
5200 0.0
5300 0.0
5400 0.0
5500 0.0
5600 2.223497947737764e-11
5700 7.206586373854073e-11
5800 1.4099489004917432e-10
5900 2.017039003369095e-10
6000 2.7804436442154465e-10
6100 3.4986384236552543e-10
6200 3.7745533115408e-10
6300 4.0019807651823013e-10
6400 4.2527624807350586e-10
6500 4.4742391000844204e-10
6600 4.716313758846341e-10
6700 4.929310267951136e-10
6800 5.160548288934817e-10
6900 5.362813274239096e-10
7000 5.58312861238662e-10
7100 5.773368361025234e-10
7200 5.978694442945648e-10
7300 6.155905596378371e-10
7400 6.307981858971135e-10
7500 6.277872338583341e-10
7600 5.85993805670423e-10
7700 5.384075909416498e-10
7800 5.010847824127134e-10
7900 4.5469884184264795e-10
8000 4.088669752438853e-10
8100 3.5832270375723905e-10
8200 3.1985002281195016e-10
8300 2.988347238362735e-10
8400 2.7977039886535065e-10
8500 2.611977518498595e-10
8600 2.414211193633669e-10
8700 2.240575205914344e-10
8800 2.0533983133058056e-10
8900 1.8885234795105959e-10
9000 1.7275823697474242e-10
9100 1.552458293139961e-10
9200 1.3980935623474388e-10
9300 1.2287568226767574e-10
9400 1.0786968521948182e-10
9500 9.308205433686207e-11
9600 7.682990614196901e-11
9700 6.235840067987202e-11
9800 4.6365915055846244e-11
9900 3.19729193969477e-11
10000 1.6025142412516075e-11
10100 0.0
10200 0.0
10300 0.0
10400 0.0
10500 0.0
10600 0.0
10700 0.0
10800 0.0
10900 0.0
11000 0.0
11100 0.0
11200 0.0
11300 0.0
11400 0.0
11500 0.0
11600 0.0
11700 0.0
11800 0.0
11900 0.0
12000 0.0
12100 0.0
12200 0.0
12300 0.0
12400 0.0
12500 0.0
12600 0.0
12700 0.0
12800 0.0
12900 0.0
13000 0.0
13100 0.0
13200 0.0
13300 0.0
13400 0.0
13500 0.0
13600 0.0
13700 0.0
13800 0.0
13900 0.0
14000 0.0
14100 0.0
14200 0.0
14300 0.0
14400 0.0
14500 0.0
14600 0.0
14700 0.0
14800 0.0
14900 0.0
15000 0.0
