
# Total neutron yield = 0.0  n/decay
	 na23 0.0
# Integral of spectrum = 9.589183073055979e-09  n/decay
100 0.0
200 0.0
300 0.0
400 0.0
500 0.0
600 0.0
700 0.0
800 0.0
900 0.0
1000 0.0
1100 0.0
1200 0.0
1300 0.0
1400 0.0
1500 0.0
1600 0.0
1700 0.0
1800 0.0
1900 0.0
2000 0.0
2100 0.0
2200 0.0
2300 0.0
2400 0.0
2500 0.0
2600 0.0
2700 0.0
2800 0.0
2900 0.0
3000 0.0
3100 0.0
3200 0.0
3300 0.0
3400 0.0
3500 0.0
3600 0.0
3700 0.0
3800 0.0
3900 0.0
4000 0.0
4100 0.0
4200 0.0
4300 0.0
4400 0.0
4500 0.0
4600 0.0
4700 0.0
4800 0.0
4900 0.0
5000 0.0
5100 0.0
5200 0.0
5300 0.0
5400 3.8313368478116657e-14
5500 5.828366435712506e-13
5600 1.6570560645468257e-12
5700 3.1996025101186343e-12
5800 4.9140528903384134e-12
5900 4.825863393247514e-12
6000 4.740403370253707e-12
6100 4.65805177938567e-12
6200 4.5789379719501006e-12
6300 4.503036818742193e-12
6400 4.430237957739075e-12
6500 4.360388498842267e-12
6600 4.293318134952225e-12
6700 4.22886704808465e-12
6800 4.1668793066062345e-12
6900 4.107220355433576e-12
7000 4.049765757064732e-12
7100 3.994401489729283e-12
7200 3.941018677907486e-12
7300 3.889506726476351e-12
7400 3.839746869373155e-12
7500 3.7916049871663265e-12
7600 3.658555605782514e-12
7700 3.323470290351234e-12
7800 2.728950495153722e-12
7900 2.00101128620655e-12
8000 1.12305659705512e-12
8100 2.656758360028831e-13
8200 0.0
8300 0.0
8400 0.0
8500 0.0
8600 0.0
8700 0.0
8800 0.0
8900 0.0
9000 0.0
9100 0.0
9200 0.0
9300 0.0
9400 0.0
9500 0.0
9600 0.0
9700 0.0
9800 0.0
9900 0.0
10000 0.0
10100 0.0
10200 0.0
10300 0.0
10400 0.0
10500 0.0
10600 0.0
10700 0.0
10800 0.0
10900 0.0
11000 0.0
11100 0.0
11200 0.0
11300 0.0
11400 0.0
11500 0.0
11600 0.0
11700 0.0
11800 0.0
11900 0.0
12000 0.0
12100 0.0
12200 0.0
12300 0.0
12400 0.0
12500 0.0
12600 0.0
12700 0.0
12800 0.0
12900 0.0
13000 0.0
13100 0.0
13200 0.0
13300 0.0
13400 0.0
13500 0.0
13600 0.0
13700 0.0
13800 0.0
13900 0.0
14000 0.0
14100 0.0
14200 0.0
14300 0.0
14400 0.0
14500 0.0
14600 0.0
14700 0.0
14800 0.0
14900 0.0
15000 0.0
