
# Total neutron yield = 0.0  n/decay
	 na23 0.0
# Integral of spectrum = 4.235861630156325e-06  n/decay
100 0.0
200 0.0
300 0.0
400 0.0
500 0.0
600 0.0
700 0.0
800 0.0
900 0.0
1000 0.0
1100 0.0
1200 0.0
1300 0.0
1400 0.0
1500 0.0
1600 0.0
1700 0.0
1800 0.0
1900 0.0
2000 0.0
2100 0.0
2200 0.0
2300 0.0
2400 0.0
2500 0.0
2600 0.0
2700 0.0
2800 0.0
2900 0.0
3000 0.0
3100 0.0
3200 0.0
3300 0.0
3400 0.0
3500 0.0
3600 0.0
3700 0.0
3800 0.0
3900 0.0
4000 0.0
4100 0.0
4200 0.0
4300 0.0
4400 0.0
4500 0.0
4600 0.0
4700 0.0
4800 0.0
4900 0.0
5000 0.0
5100 0.0
5200 0.0
5300 0.0
5400 0.0
5500 0.0
5600 0.0
5700 3.7990354849650405e-11
5800 1.5847862956859458e-10
5900 3.2283483137898026e-10
6000 5.403768169989376e-10
6100 7.74367388595728e-10
6200 9.768991682258597e-10
6300 1.1691860714206013e-09
6400 1.3077070283785221e-09
6500 1.4613702463156e-09
6600 1.5774959240509324e-09
6700 1.6803353943209706e-09
6800 1.7256641070994913e-09
6900 1.7810468688120684e-09
7000 1.8309197450616832e-09
7100 1.8364143580597423e-09
7200 1.8411114374344905e-09
7300 1.8444025037371178e-09
7400 1.8231043039527487e-09
7500 1.775810455061578e-09
7600 1.6996994525258926e-09
7700 1.6140802526200573e-09
7800 1.5142591333356142e-09
7900 1.385298247505717e-09
8000 1.2822108808207522e-09
8100 1.170738267043998e-09
8200 1.0578255195004466e-09
8300 9.747946185636948e-10
8400 8.800572543806024e-10
8500 7.69670372887896e-10
8600 6.718179183523565e-10
8700 5.694299289296e-10
8800 4.995073582430848e-10
8900 4.396370398751903e-10
9000 3.867505851578747e-10
9100 3.348726408920066e-10
9200 2.78215784547899e-10
9300 2.570324958673456e-10
9400 2.379851472037656e-10
9500 2.2179125599685624e-10
9600 2.0633124962768563e-10
9700 1.8964109726166433e-10
9800 1.7547051264484643e-10
9900 1.600267423094251e-10
10000 1.4685822136552356e-10
10100 1.3402677932201705e-10
10200 1.1978874927452517e-10
10300 1.0751983163024405e-10
10400 9.382953011085891e-11
10500 8.193759531381418e-11
10600 7.015786767755802e-11
10700 5.694142141273262e-11
10800 4.522163950355522e-11
10900 3.2001791556589794e-11
11000 2.000405324650163e-11
11100 7.669431731775538e-12
11200 0.0
11300 0.0
11400 0.0
11500 0.0
11600 0.0
11700 0.0
11800 0.0
11900 0.0
12000 0.0
12100 0.0
12200 0.0
12300 0.0
12400 0.0
12500 0.0
12600 0.0
12700 0.0
12800 0.0
12900 0.0
13000 0.0
13100 0.0
13200 0.0
13300 0.0
13400 0.0
13500 0.0
13600 0.0
13700 0.0
13800 0.0
13900 0.0
14000 0.0
14100 0.0
14200 0.0
14300 0.0
14400 0.0
14500 0.0
14600 0.0
14700 0.0
14800 0.0
14900 0.0
15000 0.0
