
# Total neutron yield = 0.0  n/decay
	 na23 0.0
# Integral of spectrum = 5.808764767746119e-07  n/decay
100 0.0
200 0.0
300 0.0
400 0.0
500 0.0
600 0.0
700 0.0
800 0.0
900 0.0
1000 0.0
1100 0.0
1200 0.0
1300 0.0
1400 0.0
1500 0.0
1600 0.0
1700 0.0
1800 0.0
1900 0.0
2000 0.0
2100 0.0
2200 0.0
2300 0.0
2400 0.0
2500 0.0
2600 0.0
2700 0.0
2800 0.0
2900 0.0
3000 0.0
3100 0.0
3200 0.0
3300 0.0
3400 0.0
3500 0.0
3600 0.0
3700 0.0
3800 0.0
3900 0.0
4000 0.0
4100 0.0
4200 0.0
4300 0.0
4400 0.0
4500 0.0
4600 0.0
4700 0.0
4800 0.0
4900 0.0
5000 0.0
5100 0.0
5200 0.0
5300 0.0
5400 0.0
5500 1.4170853448796263e-12
5600 1.3159874231988447e-11
5700 2.5720654852722042e-11
5800 4.250529241909918e-11
5900 6.24265272963917e-11
6000 8.232093920688547e-11
6100 1.0534162914138348e-10
6200 1.2657520386179587e-10
6300 1.490397022937977e-10
6400 1.691622526000133e-10
6500 1.9045477208024726e-10
6600 2.0883177691997594e-10
6700 2.2795406503063739e-10
6800 2.4438516391007936e-10
6900 2.615071905711464e-10
7000 2.6968046119535676e-10
7100 2.625047097337268e-10
7200 2.564735993053382e-10
7300 2.514622259139236e-10
7400 2.4736495475887743e-10
7500 2.4051421121527366e-10
7600 2.3118388027373866e-10
7700 2.2243351002659554e-10
7800 2.1239755290578574e-10
7900 2.005854048956141e-10
8000 1.8939707705409976e-10
8100 1.778032526556624e-10
8200 1.6445338740144872e-10
8300 1.5184835431762988e-10
8400 1.379558744762447e-10
8500 1.255154438216699e-10
8600 1.131409253297378e-10
8700 9.942804474975425e-11
8800 8.708449146170845e-11
8900 7.359305513336596e-11
9000 6.15885362590725e-11
9100 4.840554438963791e-11
9200 3.6575611756413015e-11
9300 2.4777352641543373e-11
9400 1.1795176312855882e-11
9500 0.0
9600 0.0
9700 0.0
9800 0.0
9900 0.0
10000 0.0
10100 0.0
10200 0.0
10300 0.0
10400 0.0
10500 0.0
10600 0.0
10700 0.0
10800 0.0
10900 0.0
11000 0.0
11100 0.0
11200 0.0
11300 0.0
11400 0.0
11500 0.0
11600 0.0
11700 0.0
11800 0.0
11900 0.0
12000 0.0
12100 0.0
12200 0.0
12300 0.0
12400 0.0
12500 0.0
12600 0.0
12700 0.0
12800 0.0
12900 0.0
13000 0.0
13100 0.0
13200 0.0
13300 0.0
13400 0.0
13500 0.0
13600 0.0
13700 0.0
13800 0.0
13900 0.0
14000 0.0
14100 0.0
14200 0.0
14300 0.0
14400 0.0
14500 0.0
14600 0.0
14700 0.0
14800 0.0
14900 0.0
15000 0.0
