
# Total neutron yield = 0.0  n/decay
	 na23 0.0
# Integral of spectrum = 2.3043436757787628e-06  n/decay
100 0.0
200 0.0
300 0.0
400 0.0
500 0.0
600 0.0
700 0.0
800 0.0
900 0.0
1000 0.0
1100 0.0
1200 0.0
1300 0.0
1400 0.0
1500 0.0
1600 0.0
1700 0.0
1800 0.0
1900 0.0
2000 0.0
2100 0.0
2200 0.0
2300 0.0
2400 0.0
2500 0.0
2600 0.0
2700 0.0
2800 0.0
2900 0.0
3000 0.0
3100 0.0
3200 0.0
3300 0.0
3400 0.0
3500 0.0
3600 0.0
3700 0.0
3800 0.0
3900 0.0
4000 0.0
4100 0.0
4200 0.0
4300 0.0
4400 0.0
4500 0.0
4600 0.0
4700 0.0
4800 0.0
4900 0.0
5000 0.0
5100 0.0
5200 0.0
5300 0.0
5400 0.0
5500 0.0
5600 1.1080547443710131e-11
5700 6.792506568383584e-11
5800 1.6057765531493687e-10
5900 2.9886214939643697e-10
6000 4.250022457069959e-10
6100 5.360997104229037e-10
6200 6.178357831886282e-10
6300 7.080762958263508e-10
6400 7.825229175364348e-10
6500 7.998824784993101e-10
6600 8.210974384808636e-10
6700 8.397470738918205e-10
6800 8.614361401171799e-10
6900 8.805426699614153e-10
7000 9.025322380466427e-10
7100 9.219821984799429e-10
7200 9.441898144671484e-10
7300 9.638763769212002e-10
7400 9.754699866848982e-10
7500 9.678341213393875e-10
7600 9.480558602781636e-10
7700 9.016396174867497e-10
7800 8.384706746067545e-10
7900 7.47414079213695e-10
8000 6.62080875601306e-10
8100 5.991367982775919e-10
8200 5.355495581415938e-10
8300 4.76494869555194e-10
8400 4.128524456636463e-10
8500 3.5903288199738435e-10
8600 3.3657826331057553e-10
8700 3.1270328518448456e-10
8800 2.9177151965025487e-10
8900 2.69539346190472e-10
9000 2.5017608320523675e-10
9100 2.3144038728105286e-10
9200 2.112031620130654e-10
9300 1.9350322011733663e-10
9400 1.7420947183419947e-10
9500 1.5726273301102368e-10
9600 1.3864550705111938e-10
9700 1.2219168884878046e-10
9800 1.0595558185044666e-10
9900 8.806136763583492e-11
10000 7.214759225581098e-11
10100 5.451249311330747e-11
10200 3.864372663496789e-11
10300 2.2683392475169876e-11
10400 4.907367892371371e-12
10500 0.0
10600 0.0
10700 0.0
10800 0.0
10900 0.0
11000 0.0
11100 0.0
11200 0.0
11300 0.0
11400 0.0
11500 0.0
11600 0.0
11700 0.0
11800 0.0
11900 0.0
12000 0.0
12100 0.0
12200 0.0
12300 0.0
12400 0.0
12500 0.0
12600 0.0
12700 0.0
12800 0.0
12900 0.0
13000 0.0
13100 0.0
13200 0.0
13300 0.0
13400 0.0
13500 0.0
13600 0.0
13700 0.0
13800 0.0
13900 0.0
14000 0.0
14100 0.0
14200 0.0
14300 0.0
14400 0.0
14500 0.0
14600 0.0
14700 0.0
14800 0.0
14900 0.0
15000 0.0
