
# Total neutron yield = 0.0  n/decay
	 b10 0.0
	 b11 0.0
# Integral of spectrum = 1.8659445399855342e-06  n/decay
100 0.0
200 0.0
300 0.0
400 0.0
500 0.0
600 0.0
700 0.0
800 0.0
900 0.0
1000 0.0
1100 0.0
1200 0.0
1300 0.0
1400 2.5971735996473046e-14
1500 1.3383394851703125e-12
1600 1.2867615609028956e-11
1700 1.723894119014882e-11
1800 2.138674565946195e-11
1900 2.9380607079813754e-11
2000 3.3915537520556753e-11
2100 4.20388961277489e-11
2200 7.471822557349486e-11
2300 1.1552729735884046e-10
2400 1.602211889600927e-10
2500 2.2071210861883812e-10
2600 2.8447094879177874e-10
2700 3.6144369708996303e-10
2800 4.540068672871191e-10
2900 5.413881629178387e-10
3000 6.028136721164298e-10
3100 6.284279425668192e-10
3200 6.499166510004942e-10
3300 6.714867316534748e-10
3400 6.845845043790864e-10
3500 6.957487365358667e-10
3600 6.953078954520005e-10
3700 6.900333667466274e-10
3800 6.808976439820222e-10
3900 6.678875498673884e-10
4000 6.523982638093653e-10
4100 6.426913660881113e-10
4200 6.328728240046244e-10
4300 6.190933051991917e-10
4400 5.856092093925762e-10
4500 5.501753469712583e-10
4600 5.151999951165926e-10
4700 4.821436529440901e-10
4800 4.4702131862168545e-10
4900 4.108200719406328e-10
5000 3.7550739699406926e-10
5100 3.398146175450229e-10
5200 3.041639743299545e-10
5300 2.72347953765423e-10
5400 2.4479515087874884e-10
5500 2.2267321943395265e-10
5600 2.0609073091231187e-10
5700 1.939938586913075e-10
5800 1.824384235357437e-10
5900 1.7019524455125582e-10
6000 1.5759008778032706e-10
6100 1.4506394211052798e-10
6200 1.3341372603052705e-10
6300 1.2376678900176606e-10
6400 1.1419086398861637e-10
6500 1.0526916606207842e-10
6600 9.595428328457621e-11
6700 8.852365799560176e-11
6800 8.25312609205805e-11
6900 7.649837331213811e-11
7000 7.04273163753645e-11
7100 6.432350042656014e-11
7200 5.819704105213548e-11
7300 5.206165891403751e-11
7400 4.593057485547208e-11
7500 4.020529996300601e-11
7600 3.4150440349905666e-11
7700 2.8168124895743123e-11
7800 2.2286069105993855e-11
7900 1.653544500102199e-11
8000 1.095084387975984e-11
8100 5.575164517582271e-12
8200 0.0
8300 0.0
8400 0.0
8500 0.0
8600 0.0
8700 0.0
8800 0.0
8900 0.0
9000 0.0
9100 0.0
9200 0.0
9300 0.0
9400 0.0
9500 0.0
9600 0.0
9700 0.0
9800 0.0
9900 0.0
10000 0.0
10100 0.0
10200 0.0
10300 0.0
10400 0.0
10500 0.0
10600 0.0
10700 0.0
10800 0.0
10900 0.0
11000 0.0
11100 0.0
11200 0.0
11300 0.0
11400 0.0
11500 0.0
11600 0.0
11700 0.0
11800 0.0
11900 0.0
12000 0.0
12100 0.0
12200 0.0
12300 0.0
12400 0.0
12500 0.0
12600 0.0
12700 0.0
12800 0.0
12900 0.0
13000 0.0
13100 0.0
13200 0.0
13300 0.0
13400 0.0
13500 0.0
13600 0.0
13700 0.0
13800 0.0
13900 0.0
14000 0.0
14100 0.0
14200 0.0
14300 0.0
14400 0.0
14500 0.0
14600 0.0
14700 0.0
14800 0.0
14900 0.0
15000 0.0
