
# Total neutron yield = 0.0  n/decay
	 b10 0.0
	 b11 0.0
# Integral of spectrum = 6.342301404969333e-07  n/decay
100 5.531321624442754e-11
200 1.189157543206397e-10
300 1.47818980768289e-10
400 1.9449858738893721e-10
500 2.33561399488036e-10
600 3.0726464578651253e-10
700 3.4853930921421e-10
800 3.56001687372837e-10
900 3.5934987332749e-10
1000 3.373710900376493e-10
1100 3.211593968625459e-10
1200 3.088436800701227e-10
1300 3.0057559681116777e-10
1400 2.927065265689625e-10
1500 2.8315867793950767e-10
1600 2.736104762673994e-10
1700 2.532556411111609e-10
1800 2.28865427514668e-10
1900 2.0314639629715208e-10
2000 1.798705830520746e-10
2100 1.5653503497839158e-10
2200 1.3621609586436e-10
2300 1.202347029704559e-10
2400 1.0623337202349784e-10
2500 9.407394277661845e-11
2600 8.153899702598676e-11
2700 7.05787057292965e-11
2800 6.446041338162884e-11
2900 5.869936071470922e-11
3000 5.37175638634624e-11
3100 4.856206144397488e-11
3200 4.365237644955253e-11
3300 3.8948393666132084e-11
3400 3.481259595523585e-11
3500 3.036547406694268e-11
3600 2.601237525810311e-11
3700 2.1758810720417004e-11
3800 1.804572922027477e-11
3900 1.4077471222982009e-11
4000 1.0238516899676923e-11
4100 6.509793394964075e-12
4200 3.2026708988776276e-12
4300 0.0
4400 0.0
4500 0.0
4600 0.0
4700 0.0
4800 0.0
4900 0.0
5000 0.0
5100 0.0
5200 0.0
5300 0.0
5400 0.0
5500 0.0
5600 0.0
5700 0.0
5800 0.0
5900 0.0
6000 0.0
6100 0.0
6200 0.0
6300 0.0
6400 0.0
6500 0.0
6600 0.0
6700 0.0
6800 0.0
6900 0.0
7000 0.0
7100 0.0
7200 0.0
7300 0.0
7400 0.0
7500 0.0
7600 0.0
7700 0.0
7800 0.0
7900 0.0
8000 0.0
8100 0.0
8200 0.0
8300 0.0
8400 0.0
8500 0.0
8600 0.0
8700 0.0
8800 0.0
8900 0.0
9000 0.0
9100 0.0
9200 0.0
9300 0.0
9400 0.0
9500 0.0
9600 0.0
9700 0.0
9800 0.0
9900 0.0
10000 0.0
10100 0.0
10200 0.0
10300 0.0
10400 0.0
10500 0.0
10600 0.0
10700 0.0
10800 0.0
10900 0.0
11000 0.0
11100 0.0
11200 0.0
11300 0.0
11400 0.0
11500 0.0
11600 0.0
11700 0.0
11800 0.0
11900 0.0
12000 0.0
12100 0.0
12200 0.0
12300 0.0
12400 0.0
12500 0.0
12600 0.0
12700 0.0
12800 0.0
12900 0.0
13000 0.0
13100 0.0
13200 0.0
13300 0.0
13400 0.0
13500 0.0
13600 0.0
13700 0.0
13800 0.0
13900 0.0
14000 0.0
14100 0.0
14200 0.0
14300 0.0
14400 0.0
14500 0.0
14600 0.0
14700 0.0
14800 0.0
14900 0.0
15000 0.0
