
# Total neutron yield = 0.0  n/decay
	 b10 0.0
	 b11 0.0
# Integral of spectrum = 4.730188721697625e-07  n/decay
100 2.7656116054001554e-12
200 3.247087726631018e-12
300 2.8908958748538792e-12
400 6.2205883722154e-12
500 1.0916408376952674e-11
600 1.3264289145807678e-11
700 2.1413233200247504e-11
800 3.30272460763286e-11
900 5.2560284310225927e-11
1000 7.35767020212552e-11
1100 9.009461518565888e-11
1200 1.1402809012039558e-10
1300 1.365162098495548e-10
1400 1.6830447777497272e-10
1500 1.9890077492003999e-10
1600 2.1343267298696313e-10
1700 2.256756343485976e-10
1800 2.283292856022327e-10
1900 2.2574694112586352e-10
2000 2.221911352002185e-10
2100 2.1803716074561447e-10
2200 2.1220063445456474e-10
2300 2.051534253005023e-10
2400 1.9742175165580193e-10
2500 1.885031448662265e-10
2600 1.7580598190668744e-10
2700 1.63856472475172e-10
2800 1.5179541970472193e-10
2900 1.3894420017724998e-10
3000 1.2728074175782395e-10
3100 1.1717585158085938e-10
3200 1.0533203257438844e-10
3300 9.302174480912986e-11
3400 8.094868479882383e-11
3500 6.972728921206934e-11
3600 5.981167717030022e-11
3700 5.2659467615188366e-11
3800 4.645242083346164e-11
3900 4.027347863813326e-11
4000 3.453996607963602e-11
4100 3.01478625642964e-11
4200 2.7130038537147577e-11
4300 2.431362671080555e-11
4400 2.1679429707377013e-11
4500 1.9211309556297577e-11
4600 1.7037214744628405e-11
4700 1.4838567527307443e-11
4800 1.2756912833323987e-11
4900 1.0788406329264571e-11
5000 8.93106055680334e-12
5100 7.19275826655675e-12
5200 5.574148314308241e-12
5300 4.0703146294792275e-12
5400 2.675781740101636e-12
5500 1.4940012837640612e-12
5600 3.0355821539191404e-13
5700 0.0
5800 0.0
5900 0.0
6000 0.0
6100 0.0
6200 0.0
6300 0.0
6400 0.0
6500 0.0
6600 0.0
6700 0.0
6800 0.0
6900 0.0
7000 0.0
7100 0.0
7200 0.0
7300 0.0
7400 0.0
7500 0.0
7600 0.0
7700 0.0
7800 0.0
7900 0.0
8000 0.0
8100 0.0
8200 0.0
8300 0.0
8400 0.0
8500 0.0
8600 0.0
8700 0.0
8800 0.0
8900 0.0
9000 0.0
9100 0.0
9200 0.0
9300 0.0
9400 0.0
9500 0.0
9600 0.0
9700 0.0
9800 0.0
9900 0.0
10000 0.0
10100 0.0
10200 0.0
10300 0.0
10400 0.0
10500 0.0
10600 0.0
10700 0.0
10800 0.0
10900 0.0
11000 0.0
11100 0.0
11200 0.0
11300 0.0
11400 0.0
11500 0.0
11600 0.0
11700 0.0
11800 0.0
11900 0.0
12000 0.0
12100 0.0
12200 0.0
12300 0.0
12400 0.0
12500 0.0
12600 0.0
12700 0.0
12800 0.0
12900 0.0
13000 0.0
13100 0.0
13200 0.0
13300 0.0
13400 0.0
13500 0.0
13600 0.0
13700 0.0
13800 0.0
13900 0.0
14000 0.0
14100 0.0
14200 0.0
14300 0.0
14400 0.0
14500 0.0
14600 0.0
14700 0.0
14800 0.0
14900 0.0
15000 0.0
