
# Total neutron yield = 0.0  n/decay
	 b10 0.0
	 b11 0.0
# Integral of spectrum = 4.822098046181073e-07  n/decay
100 2.2916253116934182e-11
200 7.444155740777018e-11
300 1.0226605411729965e-10
400 1.3320010160266584e-10
500 1.6077100261573536e-10
600 2.10763724829739e-10
700 2.5414956287281605e-10
800 2.6555921689431953e-10
900 2.7532161918513835e-10
1000 2.637275605724098e-10
1100 2.5228186702154573e-10
1200 2.4238848583769806e-10
1300 2.348484491367939e-10
1400 2.286226795817883e-10
1500 2.2068832248036895e-10
1600 2.1268001077174961e-10
1700 2.0048148636672068e-10
1800 1.8215766600754487e-10
1900 1.6331683592255299e-10
2000 1.439474138538253e-10
2100 1.2663385287904877e-10
2200 1.0960704648101352e-10
2300 9.618669907197245e-11
2400 8.502701482111992e-11
2500 7.467100816748889e-11
2600 6.567590129579434e-11
2700 5.6744843314507646e-11
2800 5.0482069482456274e-11
2900 4.601330546805434e-11
3000 4.1525711759319274e-11
3100 3.730077652245359e-11
3200 3.356944403889799e-11
3300 2.9765116050857483e-11
3400 2.6126638742546616e-11
3500 2.2625642750114507e-11
3600 1.950495059581132e-11
3700 1.6266929499803855e-11
3800 1.3192312246882727e-11
3900 1.029144851695052e-11
4000 7.779390535573369e-12
4100 5.208794161841829e-12
4200 2.8003939139320825e-12
4300 5.68885669215827e-13
4400 0.0
4500 0.0
4600 0.0
4700 0.0
4800 0.0
4900 0.0
5000 0.0
5100 0.0
5200 0.0
5300 0.0
5400 0.0
5500 0.0
5600 0.0
5700 0.0
5800 0.0
5900 0.0
6000 0.0
6100 0.0
6200 0.0
6300 0.0
6400 0.0
6500 0.0
6600 0.0
6700 0.0
6800 0.0
6900 0.0
7000 0.0
7100 0.0
7200 0.0
7300 0.0
7400 0.0
7500 0.0
7600 0.0
7700 0.0
7800 0.0
7900 0.0
8000 0.0
8100 0.0
8200 0.0
8300 0.0
8400 0.0
8500 0.0
8600 0.0
8700 0.0
8800 0.0
8900 0.0
9000 0.0
9100 0.0
9200 0.0
9300 0.0
9400 0.0
9500 0.0
9600 0.0
9700 0.0
9800 0.0
9900 0.0
10000 0.0
10100 0.0
10200 0.0
10300 0.0
10400 0.0
10500 0.0
10600 0.0
10700 0.0
10800 0.0
10900 0.0
11000 0.0
11100 0.0
11200 0.0
11300 0.0
11400 0.0
11500 0.0
11600 0.0
11700 0.0
11800 0.0
11900 0.0
12000 0.0
12100 0.0
12200 0.0
12300 0.0
12400 0.0
12500 0.0
12600 0.0
12700 0.0
12800 0.0
12900 0.0
13000 0.0
13100 0.0
13200 0.0
13300 0.0
13400 0.0
13500 0.0
13600 0.0
13700 0.0
13800 0.0
13900 0.0
14000 0.0
14100 0.0
14200 0.0
14300 0.0
14400 0.0
14500 0.0
14600 0.0
14700 0.0
14800 0.0
14900 0.0
15000 0.0
