
# Total neutron yield = 0.0  n/decay
	 b10 0.0
	 b11 0.0
# Integral of spectrum = 5.572658286459141e-06  n/decay
100 3.768994911628114e-09
200 3.523433539864168e-09
300 3.2904936562432588e-09
400 3.0044290257734435e-09
500 2.936863447259837e-09
600 3.4289133856910614e-09
700 3.5520558345567912e-09
800 3.5872105327590007e-09
900 3.673109788341602e-09
1000 3.081703003720733e-09
1100 2.655683856726168e-09
1200 2.340357733896357e-09
1300 2.09420812012235e-09
1400 1.8605289812918404e-09
1500 1.6790948349931937e-09
1600 1.5462754108356946e-09
1700 1.4360983904764324e-09
1800 1.3337902595170615e-09
1900 1.2359666567853135e-09
2000 1.1234776386495366e-09
2100 9.652001465371554e-10
2200 8.08815372383908e-10
2300 6.998931046590321e-10
2400 5.933777335119981e-10
2500 4.651119980159819e-10
2600 3.562063425691451e-10
2700 2.5308019929645537e-10
2800 1.1966921801351545e-10
2900 4.601330546805434e-11
3000 4.1525711759319274e-11
3100 3.730077652245359e-11
3200 3.356944403889799e-11
3300 2.9765116050857483e-11
3400 2.6126638742546616e-11
3500 2.2625642750114507e-11
3600 1.950495059581132e-11
3700 1.6266929499803855e-11
3800 1.3192312246882727e-11
3900 1.029144851695052e-11
4000 7.779390535573369e-12
4100 5.208794161841829e-12
4200 2.8003939139320825e-12
4300 5.68885669215827e-13
4400 0.0
4500 0.0
4600 0.0
4700 0.0
4800 0.0
4900 0.0
5000 0.0
5100 0.0
5200 0.0
5300 0.0
5400 0.0
5500 0.0
5600 0.0
5700 0.0
5800 0.0
5900 0.0
6000 0.0
6100 0.0
6200 0.0
6300 0.0
6400 0.0
6500 0.0
6600 0.0
6700 0.0
6800 0.0
6900 0.0
7000 0.0
7100 0.0
7200 0.0
7300 0.0
7400 0.0
7500 0.0
7600 0.0
7700 0.0
7800 0.0
7900 0.0
8000 0.0
8100 0.0
8200 0.0
8300 0.0
8400 0.0
8500 0.0
8600 0.0
8700 0.0
8800 0.0
8900 0.0
9000 0.0
9100 0.0
9200 0.0
9300 0.0
9400 0.0
9500 0.0
9600 0.0
9700 0.0
9800 0.0
9900 0.0
10000 0.0
10100 0.0
10200 0.0
10300 0.0
10400 0.0
10500 0.0
10600 0.0
10700 0.0
10800 0.0
10900 0.0
11000 0.0
11100 0.0
11200 0.0
11300 0.0
11400 0.0
11500 0.0
11600 0.0
11700 0.0
11800 0.0
11900 0.0
12000 0.0
12100 0.0
12200 0.0
12300 0.0
12400 0.0
12500 0.0
12600 0.0
12700 0.0
12800 0.0
12900 0.0
13000 0.0
13100 0.0
13200 0.0
13300 0.0
13400 0.0
13500 0.0
13600 0.0
13700 0.0
13800 0.0
13900 0.0
14000 0.0
14100 0.0
14200 0.0
14300 0.0
14400 0.0
14500 0.0
14600 0.0
14700 0.0
14800 0.0
14900 0.0
15000 0.0
