
# Total neutron yield = 0.0  n/decay
	 b10 0.0
	 b11 0.0
# Integral of spectrum = 5.610717894593072e-06  n/decay
100 1.2659689277660044e-11
200 2.8279875272705897e-11
300 4.473023159967115e-11
400 1.7878750314714623e-10
500 1.0974531205243591e-09
600 1.911082266957931e-09
700 3.1369840617731302e-09
800 4.285616363514112e-09
900 3.940714396653164e-09
1000 4.0909765940714675e-09
1100 3.890094871554432e-09
1200 3.6206870983735658e-09
1300 3.410642554526823e-09
1400 3.2394130710024138e-09
1500 3.0238974445629297e-09
1600 2.761769414272835e-09
1700 2.5597418368513192e-09
1800 2.359114845434931e-09
1900 2.075817852753099e-09
2000 1.751835234479048e-09
2100 1.4291477307376046e-09
2200 1.006041418288998e-09
2300 9.168986695056716e-10
2400 8.169221325620551e-10
2500 6.975434781394285e-10
2600 5.254491367747834e-10
2700 4.054721060619727e-10
2800 3.456881315889887e-10
2900 3.0378927438621644e-10
3000 2.74001926525251e-10
3100 2.4776441073403483e-10
3200 2.2390712768311272e-10
3300 1.9957139145977945e-10
3400 1.7614756518520694e-10
3500 1.5655635558899318e-10
3600 1.4074028242248466e-10
3700 1.2905386484158875e-10
3800 1.178526440123349e-10
3900 1.0552744821340511e-10
4000 8.952682785436573e-11
4100 7.597927374353626e-11
4200 6.559972052791471e-11
4300 5.5800958435480964e-11
4400 4.550824142081801e-11
4500 3.6634986254826245e-11
4600 2.795374461098525e-11
4700 1.8014829599154657e-11
4800 1.2756912833323987e-11
4900 1.0788406329264571e-11
5000 8.93106055680334e-12
5100 7.19275826655675e-12
5200 5.574148314308241e-12
5300 4.0703146294792275e-12
5400 2.675781740101636e-12
5500 1.4940012837640612e-12
5600 3.0355821539191404e-13
5700 0.0
5800 0.0
5900 0.0
6000 0.0
6100 0.0
6200 0.0
6300 0.0
6400 0.0
6500 0.0
6600 0.0
6700 0.0
6800 0.0
6900 0.0
7000 0.0
7100 0.0
7200 0.0
7300 0.0
7400 0.0
7500 0.0
7600 0.0
7700 0.0
7800 0.0
7900 0.0
8000 0.0
8100 0.0
8200 0.0
8300 0.0
8400 0.0
8500 0.0
8600 0.0
8700 0.0
8800 0.0
8900 0.0
9000 0.0
9100 0.0
9200 0.0
9300 0.0
9400 0.0
9500 0.0
9600 0.0
9700 0.0
9800 0.0
9900 0.0
10000 0.0
10100 0.0
10200 0.0
10300 0.0
10400 0.0
10500 0.0
10600 0.0
10700 0.0
10800 0.0
10900 0.0
11000 0.0
11100 0.0
11200 0.0
11300 0.0
11400 0.0
11500 0.0
11600 0.0
11700 0.0
11800 0.0
11900 0.0
12000 0.0
12100 0.0
12200 0.0
12300 0.0
12400 0.0
12500 0.0
12600 0.0
12700 0.0
12800 0.0
12900 0.0
13000 0.0
13100 0.0
13200 0.0
13300 0.0
13400 0.0
13500 0.0
13600 0.0
13700 0.0
13800 0.0
13900 0.0
14000 0.0
14100 0.0
14200 0.0
14300 0.0
14400 0.0
14500 0.0
14600 0.0
14700 0.0
14800 0.0
14900 0.0
15000 0.0
