
# Total neutron yield = 0.0  n/decay
	 n14 0.0
	 n15 0.0
# Integral of spectrum = 3.638182647689988e-06  n/decay
100 0.0
200 0.0
300 0.0
400 0.0
500 0.0
600 0.0
700 0.0
800 0.0
900 0.0
1000 0.0
1100 0.0
1200 0.0
1300 0.0
1400 0.0
1500 0.0
1600 0.0
1700 0.0
1800 0.0
1900 0.0
2000 0.0
2100 0.0
2200 0.0
2300 0.0
2400 0.0
2500 0.0
2600 0.0
2700 0.0
2800 0.0
2900 0.0
3000 0.0
3100 0.0
3200 0.0
3300 1.6804504527734522e-13
3400 4.8458933026313557e-11
3500 2.8622373825002816e-10
3600 6.711283463966118e-10
3700 1.1691392764200523e-09
3800 1.3695943693519905e-09
3900 1.57610886929618e-09
4000 1.7707579765647995e-09
4100 1.695789832720457e-09
4200 1.6294954572126049e-09
4300 1.5709498283869853e-09
4400 1.5191911369339148e-09
4500 1.4734036851765219e-09
4600 1.4328917239065009e-09
4700 1.397060446448297e-09
4800 1.3654011284862257e-09
4900 1.3374765179231067e-09
5000 1.3129106511941148e-09
5100 1.2913785089436278e-09
5200 1.272598465865279e-09
5300 1.2563256596871992e-09
5400 1.2423469094262415e-09
5500 1.230474664669194e-09
5600 1.2205128454858566e-09
5700 1.209845403490485e-09
5800 1.1621708350683347e-09
5900 1.0705441718394746e-09
6000 9.86470202527565e-10
6100 8.298688094427661e-10
6200 6.070264533764666e-10
6300 4.592812934431823e-10
6400 3.596961594492549e-10
6500 2.8735958537323376e-10
6600 1.880134402758299e-10
6700 8.163802559426375e-11
6800 1.218091603081489e-13
6900 1.15232007801718e-15
7000 8.764616185729969e-16
7100 6.428686976833204e-16
7200 4.0783768738792052e-16
7300 1.9155325957165549e-16
7400 0.0
7500 0.0
7600 0.0
7700 0.0
7800 0.0
7900 0.0
8000 0.0
8100 0.0
8200 0.0
8300 0.0
8400 0.0
8500 0.0
8600 0.0
8700 0.0
8800 0.0
8900 0.0
9000 0.0
9100 0.0
9200 0.0
9300 0.0
9400 0.0
9500 0.0
9600 0.0
9700 0.0
9800 0.0
9900 0.0
10000 0.0
10100 0.0
10200 0.0
10300 0.0
10400 0.0
10500 0.0
10600 0.0
10700 0.0
10800 0.0
10900 0.0
11000 0.0
11100 0.0
11200 0.0
11300 0.0
11400 0.0
11500 0.0
11600 0.0
11700 0.0
11800 0.0
11900 0.0
12000 0.0
12100 0.0
12200 0.0
12300 0.0
12400 0.0
12500 0.0
12600 0.0
12700 0.0
12800 0.0
12900 0.0
13000 0.0
13100 0.0
13200 0.0
13300 0.0
13400 0.0
13500 0.0
13600 0.0
13700 0.0
13800 0.0
13900 0.0
14000 0.0
14100 0.0
14200 0.0
14300 0.0
14400 0.0
14500 0.0
14600 0.0
14700 0.0
14800 0.0
14900 0.0
15000 0.0
