
# Total neutron yield = 0.0  n/decay
	 n14 0.0
	 n15 0.0
# Integral of spectrum = 3.771335405180827e-07  n/decay
100 0.0
200 0.0
300 0.0
400 0.0
500 0.0
600 0.0
700 0.0
800 0.0
900 0.0
1000 0.0
1100 0.0
1200 0.0
1300 0.0
1400 0.0
1500 0.0
1600 0.0
1700 0.0
1800 0.0
1900 0.0
2000 0.0
2100 0.0
2200 0.0
2300 0.0
2400 0.0
2500 0.0
2600 0.0
2700 0.0
2800 0.0
2900 0.0
3000 0.0
3100 0.0
3200 0.0
3300 6.2288724316552085e-12
3400 5.288125110766282e-11
3500 1.3231760200179833e-10
3600 2.102793930438115e-10
3700 1.9628409797586206e-10
3800 1.8429164901500703e-10
3900 1.7404877101559546e-10
4000 1.652979044932486e-10
4100 1.5782783361987506e-10
4200 1.5146248225539164e-10
4300 1.4605596068414573e-10
4400 1.4148615741104008e-10
4500 1.3765037094165032e-10
4600 1.344622527913266e-10
4700 1.318487355871043e-10
4800 1.2974783425050133e-10
4900 1.2810670300243905e-10
5000 1.2688000549295488e-10
5100 1.2602928696324646e-10
5200 1.2552100062744729e-10
5300 1.253265949517531e-10
5400 1.2542105707062184e-10
5500 1.2578291016185706e-10
5600 1.2639335156093805e-10
5700 1.2654860965264037e-10
5800 1.2128703326538326e-10
5900 1.0579116287818157e-10
6000 8.29688389184721e-11
6100 5.4512905836002065e-11
6200 1.8592935001286872e-11
6300 5.542562484418561e-16
6400 4.622491955281298e-16
6500 3.541501898591766e-16
6600 2.4924756245612395e-16
6700 1.5883978525788797e-16
6800 6.242894584493619e-17
6900 0.0
7000 0.0
7100 0.0
7200 0.0
7300 0.0
7400 0.0
7500 0.0
7600 0.0
7700 0.0
7800 0.0
7900 0.0
8000 0.0
8100 0.0
8200 0.0
8300 0.0
8400 0.0
8500 0.0
8600 0.0
8700 0.0
8800 0.0
8900 0.0
9000 0.0
9100 0.0
9200 0.0
9300 0.0
9400 0.0
9500 0.0
9600 0.0
9700 0.0
9800 0.0
9900 0.0
10000 0.0
10100 0.0
10200 0.0
10300 0.0
10400 0.0
10500 0.0
10600 0.0
10700 0.0
10800 0.0
10900 0.0
11000 0.0
11100 0.0
11200 0.0
11300 0.0
11400 0.0
11500 0.0
11600 0.0
11700 0.0
11800 0.0
11900 0.0
12000 0.0
12100 0.0
12200 0.0
12300 0.0
12400 0.0
12500 0.0
12600 0.0
12700 0.0
12800 0.0
12900 0.0
13000 0.0
13100 0.0
13200 0.0
13300 0.0
13400 0.0
13500 0.0
13600 0.0
13700 0.0
13800 0.0
13900 0.0
14000 0.0
14100 0.0
14200 0.0
14300 0.0
14400 0.0
14500 0.0
14600 0.0
14700 0.0
14800 0.0
14900 0.0
15000 0.0
