
# Total neutron yield = 0.0  n/decay
	 be9 0.0
# Integral of spectrum = 0.00021611656482617913  n/decay
100 0.0
200 0.0
300 0.0
400 0.0
500 0.0
600 0.0
700 0.0
800 0.0
900 0.0
1000 0.0
1100 0.0
1200 0.0
1300 0.0
1400 0.0
1500 0.0
1600 0.0
1700 1.0154876580602268e-09
1800 1.039638026954169e-08
1900 1.44739897523788e-08
2000 1.653192647929732e-08
2100 1.92475048924413e-08
2200 2.136370894754522e-08
2300 2.325983132108753e-08
2400 2.5403912570024512e-08
2500 2.779272662501042e-08
2600 3.072555965042178e-08
2700 3.775694894153165e-08
2800 4.283145206921035e-08
2900 5.174214765001316e-08
3000 5.966165792379352e-08
3100 6.532579378464291e-08
3200 7.002487679381516e-08
3300 7.12385803762297e-08
3400 7.188039950823962e-08
3500 7.04127407024854e-08
3600 6.8546240495694e-08
3700 6.690583540610656e-08
3800 6.559397328976879e-08
3900 6.481941222086983e-08
4000 6.4164260587079e-08
4100 6.36132075298951e-08
4200 6.2768861096056e-08
4300 6.120676851175231e-08
4400 5.97584730769892e-08
4500 5.828217288131363e-08
4600 5.6979202053423435e-08
4700 5.5796185479247445e-08
4800 5.465433685617849e-08
4900 5.37870145371539e-08
5000 5.19608252348724e-08
5100 5.001122869749317e-08
5200 4.826522095847962e-08
5300 4.590273313517329e-08
5400 4.3098276804124014e-08
5500 3.9925255035816656e-08
5600 3.698624225795309e-08
5700 3.385579745258149e-08
5800 3.1382134259971537e-08
5900 2.845234245066623e-08
6000 2.519866438625836e-08
6100 2.207211100959116e-08
6200 1.882858273192984e-08
6300 1.5675144579945942e-08
6400 1.31918551362172e-08
6500 1.1275888395565457e-08
6600 9.037485302049687e-09
6700 7.035531236311194e-09
6800 5.437327291981848e-09
6900 4.640956516833228e-09
7000 4.106771603010812e-09
7100 3.677841979887955e-09
7200 3.348143607128613e-09
7300 3.0641429026203442e-09
7400 2.8082212266073484e-09
7500 2.6021899182653387e-09
7600 2.375415005113431e-09
7700 2.1341699198254545e-09
7800 1.87323097586465e-09
7900 1.6018297343252671e-09
8000 1.3269006774641225e-09
8100 1.039807030922064e-09
8200 6.997306424289985e-10
8300 3.12080227214145e-10
8400 0.0
8500 0.0
8600 0.0
8700 0.0
8800 0.0
8900 0.0
9000 0.0
9100 0.0
9200 0.0
9300 0.0
9400 0.0
9500 0.0
9600 0.0
9700 0.0
9800 0.0
9900 0.0
10000 0.0
10100 0.0
10200 0.0
10300 0.0
10400 0.0
10500 0.0
10600 0.0
10700 0.0
10800 0.0
10900 0.0
11000 0.0
11100 0.0
11200 0.0
11300 0.0
11400 0.0
11500 0.0
11600 0.0
11700 0.0
11800 0.0
11900 0.0
12000 0.0
12100 0.0
12200 0.0
12300 0.0
12400 0.0
12500 0.0
12600 0.0
12700 0.0
12800 0.0
12900 0.0
13000 0.0
13100 0.0
13200 0.0
13300 0.0
13400 0.0
13500 0.0
13600 0.0
13700 0.0
13800 0.0
13900 0.0
14000 0.0
14100 0.0
14200 0.0
14300 0.0
14400 0.0
14500 0.0
14600 0.0
14700 0.0
14800 0.0
14900 0.0
15000 0.0
