
# Total neutron yield = 0.0  n/decay
	 o16 0.0
	 o17 0.0
	 o18 0.0
# Integral of spectrum = 3.2536957001423043e-10  n/decay
100 0.0
200 0.0
300 0.0
400 0.0
500 0.0
600 0.0
700 0.0
800 0.0
900 0.0
1000 0.0
1100 0.0
1200 0.0
1300 0.0
1400 0.0
1500 0.0
1600 0.0
1700 0.0
1800 0.0
1900 0.0
2000 0.0
2100 0.0
2200 0.0
2300 0.0
2400 0.0
2500 0.0
2600 0.0
2700 0.0
2800 0.0
2900 0.0
3000 0.0
3100 0.0
3200 0.0
3300 0.0
3400 0.0
3500 0.0
3600 0.0
3700 0.0
3800 0.0
3900 0.0
4000 0.0
4100 0.0
4200 0.0
4300 0.0
4400 0.0
4500 0.0
4600 0.0
4700 0.0
4800 0.0
4900 0.0
5000 0.0
5100 0.0
5200 0.0
5300 0.0
5400 0.0
5500 0.0
5600 0.0
5700 7.717344542349918e-18
5800 6.571802155602595e-17
5900 1.6899813184866006e-16
6000 8.700390159866287e-16
6100 9.065944273104894e-16
6200 1.1978191836887345e-15
6300 1.928812163906095e-15
6400 4.23491083722549e-15
6500 5.376362165897366e-15
6600 6.186515510875841e-15
6700 8.886979555476025e-15
6800 1.1724047208136605e-14
6900 2.4586641486778106e-14
7000 3.221499537511516e-14
7100 3.938116504962326e-14
7200 5.175763546334717e-14
7300 7.472654809853439e-14
7400 9.414328349647314e-14
7500 1.2061719826144863e-13
7600 1.3508332704312785e-13
7700 1.4383239287973082e-13
7800 1.532725009267001e-13
7900 1.5664877530635684e-13
8000 1.544634665345994e-13
8100 1.5235545027200332e-13
8200 1.4999180678287297e-13
8300 1.4781414834936826e-13
8400 1.44114602942649e-13
8500 1.4184975277754994e-13
8600 1.3901828400529817e-13
8700 1.3383188209323778e-13
8800 1.2409265958185993e-13
8900 1.178458760181587e-13
9000 1.152429968631183e-13
9100 1.0954545193248533e-13
9200 1.0306038294704265e-13
9300 9.343726760719281e-14
9400 8.251870318914925e-14
9500 6.952492933566528e-14
9600 5.909647677040312e-14
9700 4.583844489904948e-14
9800 3.340750840421552e-14
9900 2.383479226766543e-14
10000 1.8207803486723376e-14
10100 1.3889599842451927e-14
10200 9.531244023861444e-15
10300 3.3631922619976353e-15
10400 0.0
10500 0.0
10600 0.0
10700 0.0
10800 0.0
10900 0.0
11000 0.0
11100 0.0
11200 0.0
11300 0.0
11400 0.0
11500 0.0
11600 0.0
11700 0.0
11800 0.0
11900 0.0
12000 0.0
12100 0.0
12200 0.0
12300 0.0
12400 0.0
12500 0.0
12600 0.0
12700 0.0
12800 0.0
12900 0.0
13000 0.0
13100 0.0
13200 0.0
13300 0.0
13400 0.0
13500 0.0
13600 0.0
13700 0.0
13800 0.0
13900 0.0
14000 0.0
14100 0.0
14200 0.0
14300 0.0
14400 0.0
14500 0.0
14600 0.0
14700 0.0
14800 0.0
14900 0.0
15000 0.0
