
# Total neutron yield = 0.0  n/decay
	 o16 0.0
	 o17 0.0
	 o18 0.0
# Integral of spectrum = 7.2355749794086195e-09  n/decay
100 0.0
200 0.0
300 0.0
400 0.0
500 0.0
600 0.0
700 0.0
800 0.0
900 0.0
1000 0.0
1100 0.0
1200 0.0
1300 0.0
1400 0.0
1500 0.0
1600 0.0
1700 0.0
1800 0.0
1900 0.0
2000 0.0
2100 0.0
2200 0.0
2300 0.0
2400 0.0
2500 0.0
2600 0.0
2700 0.0
2800 0.0
2900 0.0
3000 0.0
3100 0.0
3200 0.0
3300 0.0
3400 0.0
3500 0.0
3600 0.0
3700 0.0
3800 0.0
3900 0.0
4000 0.0
4100 0.0
4200 0.0
4300 0.0
4400 7.849610948058177e-20
4500 2.2484468274285366e-16
4600 9.969036010783587e-16
4700 9.081346435632079e-15
4800 2.4330437803737887e-14
4900 7.820256350241435e-14
5000 1.2562173760278768e-13
5100 1.702723170110862e-13
5200 2.3937156640269953e-13
5300 2.6947042889549376e-13
5400 5.022582572663815e-13
5500 8.683640303792395e-13
5600 9.585734145185923e-13
5700 1.2218468315830368e-12
5800 1.6952630481864004e-12
5900 2.307044443309662e-12
6000 2.7908248871104585e-12
6100 3.3631468900113406e-12
6200 3.5211907346511745e-12
6300 3.5856326131301022e-12
6400 3.77143935984731e-12
6500 3.697008220859912e-12
6600 3.5870182735616198e-12
6700 3.4827125619220617e-12
6800 3.3864566820171046e-12
6900 3.336786372297608e-12
7000 3.215373802144926e-12
7100 3.0065413531514125e-12
7200 2.8233135861032022e-12
7300 2.7371417972410764e-12
7400 2.66645121415533e-12
7500 2.55483644004431e-12
7600 2.3908558615828508e-12
7700 2.1440065470872474e-12
7800 1.846763840816708e-12
7900 1.572345212806423e-12
8000 1.3349551881395797e-12
8100 9.361540914846994e-13
8200 6.762084527631733e-13
8300 5.571046449000707e-13
8400 4.1426294045926355e-13
8500 3.158275452388562e-13
8600 1.4001213070911465e-13
8700 3.045630017216434e-14
8800 0.0
8900 0.0
9000 0.0
9100 0.0
9200 0.0
9300 0.0
9400 0.0
9500 0.0
9600 0.0
9700 0.0
9800 0.0
9900 0.0
10000 0.0
10100 0.0
10200 0.0
10300 0.0
10400 0.0
10500 0.0
10600 0.0
10700 0.0
10800 0.0
10900 0.0
11000 0.0
11100 0.0
11200 0.0
11300 0.0
11400 0.0
11500 0.0
11600 0.0
11700 0.0
11800 0.0
11900 0.0
12000 0.0
12100 0.0
12200 0.0
12300 0.0
12400 0.0
12500 0.0
12600 0.0
12700 0.0
12800 0.0
12900 0.0
13000 0.0
13100 0.0
13200 0.0
13300 0.0
13400 0.0
13500 0.0
13600 0.0
13700 0.0
13800 0.0
13900 0.0
14000 0.0
14100 0.0
14200 0.0
14300 0.0
14400 0.0
14500 0.0
14600 0.0
14700 0.0
14800 0.0
14900 0.0
15000 0.0
