
# Total neutron yield = 0.0  n/decay
	 o16 0.0
	 o17 0.0
	 o18 0.0
# Integral of spectrum = 9.294672239251693e-09  n/decay
100 0.0
200 0.0
300 0.0
400 0.0
500 0.0
600 0.0
700 0.0
800 0.0
900 0.0
1000 0.0
1100 0.0
1200 0.0
1300 0.0
1400 0.0
1500 0.0
1600 0.0
1700 0.0
1800 0.0
1900 0.0
2000 0.0
2100 0.0
2200 0.0
2300 0.0
2400 0.0
2500 0.0
2600 0.0
2700 0.0
2800 0.0
2900 0.0
3000 0.0
3100 0.0
3200 0.0
3300 0.0
3400 0.0
3500 0.0
3600 0.0
3700 0.0
3800 0.0
3900 0.0
4000 0.0
4100 3.9469376530577564e-15
4200 1.1926441597571586e-14
4300 1.1522102692382645e-14
4400 3.061994110823073e-14
4500 1.1247010606469644e-13
4600 4.295814547028311e-13
4700 8.354802953564566e-13
4800 1.6938041519773113e-12
4900 2.2818851512249665e-12
5000 3.1003645150463048e-12
5100 4.105478842295929e-12
5200 4.917295868751774e-12
5300 5.595658520611007e-12
5400 5.68572240463061e-12
5500 5.697458714542459e-12
5600 5.665015562282337e-12
5700 5.5946085402512044e-12
5800 5.491078246357462e-12
5900 5.343234361836711e-12
6000 5.138987821334676e-12
6100 4.919154180811658e-12
6200 4.548025684814526e-12
6300 4.193251469940598e-12
6400 3.753664283682945e-12
6500 3.2046216367595355e-12
6600 2.8604133817629453e-12
6700 2.4191027493276335e-12
6800 1.9691476806715116e-12
6900 1.51583849507496e-12
7000 9.85743848836393e-13
7100 6.392379488293325e-13
7200 1.9238105168689802e-13
7300 0.0
7400 0.0
7500 0.0
7600 0.0
7700 0.0
7800 0.0
7900 0.0
8000 0.0
8100 0.0
8200 0.0
8300 0.0
8400 0.0
8500 0.0
8600 0.0
8700 0.0
8800 0.0
8900 0.0
9000 0.0
9100 0.0
9200 0.0
9300 0.0
9400 0.0
9500 0.0
9600 0.0
9700 0.0
9800 0.0
9900 0.0
10000 0.0
10100 0.0
10200 0.0
10300 0.0
10400 0.0
10500 0.0
10600 0.0
10700 0.0
10800 0.0
10900 0.0
11000 0.0
11100 0.0
11200 0.0
11300 0.0
11400 0.0
11500 0.0
11600 0.0
11700 0.0
11800 0.0
11900 0.0
12000 0.0
12100 0.0
12200 0.0
12300 0.0
12400 0.0
12500 0.0
12600 0.0
12700 0.0
12800 0.0
12900 0.0
13000 0.0
13100 0.0
13200 0.0
13300 0.0
13400 0.0
13500 0.0
13600 0.0
13700 0.0
13800 0.0
13900 0.0
14000 0.0
14100 0.0
14200 0.0
14300 0.0
14400 0.0
14500 0.0
14600 0.0
14700 0.0
14800 0.0
14900 0.0
15000 0.0
