
# Total neutron yield = 0.0  n/decay
	 o16 0.0
	 o17 0.0
	 o18 0.0
# Integral of spectrum = 3.837994858882055e-08  n/decay
100 0.0
200 0.0
300 0.0
400 0.0
500 0.0
600 0.0
700 0.0
800 0.0
900 0.0
1000 0.0
1100 0.0
1200 0.0
1300 0.0
1400 0.0
1500 0.0
1600 0.0
1700 0.0
1800 0.0
1900 0.0
2000 0.0
2100 0.0
2200 0.0
2300 0.0
2400 0.0
2500 0.0
2600 0.0
2700 0.0
2800 0.0
2900 0.0
3000 0.0
3100 0.0
3200 0.0
3300 0.0
3400 0.0
3500 0.0
3600 0.0
3700 0.0
3800 0.0
3900 0.0
4000 0.0
4100 0.0
4200 0.0
4300 0.0
4400 0.0
4500 0.0
4600 7.762285603091836e-16
4700 3.324993097135475e-15
4800 7.94487979708135e-15
4900 1.4445546251294262e-14
5000 2.2395540209798166e-14
5100 3.1969627192580314e-14
5200 4.3002807094565596e-14
5300 5.544150681369323e-14
5400 8.257276960354346e-14
5500 6.488675155457135e-13
5600 1.4044827258949303e-12
5700 1.939014189337095e-12
5800 2.7785398856379126e-12
5900 3.730540432794866e-12
6000 5.158917439098263e-12
6100 6.2728494158883745e-12
6200 8.743692894609835e-12
6300 1.170470538642307e-11
6400 1.3708278156076535e-11
6500 1.5721483172361157e-11
6600 1.7848502604749804e-11
6700 1.95223226626378e-11
6800 2.1271324310878546e-11
6900 2.084201567710352e-11
7000 1.9841804626560547e-11
7100 1.916938298887861e-11
7200 1.8331365266425976e-11
7300 1.7432854520077565e-11
7400 1.6827637258054632e-11
7500 1.641241950343479e-11
7600 1.5566073709579536e-11
7700 1.47270723079737e-11
7800 1.4049701103045305e-11
7900 1.3375895168670076e-11
8000 1.185270608936963e-11
8100 1.0800739677728325e-11
8200 9.419696472793113e-12
8300 7.677376698780803e-12
8400 7.0947009136047795e-12
8500 5.901567202764183e-12
8600 4.861961460750828e-12
8700 3.757062598228368e-12
8800 2.388573361843615e-12
8900 1.5885565308317864e-12
9000 4.996722641839158e-13
9100 1.0954545193248533e-13
9200 1.0306038294704265e-13
9300 9.343726760719281e-14
9400 8.251870318914925e-14
9500 6.952492933566528e-14
9600 5.909647677040312e-14
9700 4.583844489904948e-14
9800 3.340750840421552e-14
9900 2.383479226766543e-14
10000 1.8207803486723376e-14
10100 1.3889599842451927e-14
10200 9.531244023861444e-15
10300 3.3631922619976353e-15
10400 0.0
10500 0.0
10600 0.0
10700 0.0
10800 0.0
10900 0.0
11000 0.0
11100 0.0
11200 0.0
11300 0.0
11400 0.0
11500 0.0
11600 0.0
11700 0.0
11800 0.0
11900 0.0
12000 0.0
12100 0.0
12200 0.0
12300 0.0
12400 0.0
12500 0.0
12600 0.0
12700 0.0
12800 0.0
12900 0.0
13000 0.0
13100 0.0
13200 0.0
13300 0.0
13400 0.0
13500 0.0
13600 0.0
13700 0.0
13800 0.0
13900 0.0
14000 0.0
14100 0.0
14200 0.0
14300 0.0
14400 0.0
14500 0.0
14600 0.0
14700 0.0
14800 0.0
14900 0.0
15000 0.0
