
# Total neutron yield = 0.0  n/decay
	 o16 0.0
	 o17 0.0
	 o18 0.0
# Integral of spectrum = 3.972875636579817e-08  n/decay
100 0.0
200 0.0
300 0.0
400 0.0
500 0.0
600 0.0
700 0.0
800 0.0
900 0.0
1000 0.0
1100 0.0
1200 0.0
1300 0.0
1400 0.0
1500 0.0
1600 0.0
1700 0.0
1800 0.0
1900 0.0
2000 0.0
2100 0.0
2200 0.0
2300 0.0
2400 0.0
2500 0.0
2600 0.0
2700 0.0
2800 0.0
2900 0.0
3000 0.0
3100 0.0
3200 0.0
3300 0.0
3400 0.0
3500 0.0
3600 0.0
3700 0.0
3800 0.0
3900 0.0
4000 0.0
4100 0.0
4200 0.0
4300 0.0
4400 7.849610948058177e-20
4500 6.548502512684228e-16
4600 3.3124965173956384e-15
4700 1.4664071360155696e-14
4800 3.445221302805438e-14
4900 9.36229402204934e-14
5000 1.4807269590707914e-13
5100 2.2023688184859073e-13
5200 8.986007073054747e-13
5300 1.3760035594851062e-12
5400 2.136607374340279e-12
5500 2.804282651353066e-12
5600 3.705587996211962e-12
5700 4.999096461750022e-12
5800 6.542721821474448e-12
5900 9.192704293827053e-12
6000 1.222007660397788e-11
6100 1.4202832150187788e-11
6200 1.6153318320717385e-11
6300 1.8444532131640772e-11
6400 2.0147103155927127e-11
6500 2.1709646107859015e-11
6600 2.1335654055401358e-11
6700 2.0918127853288693e-11
6800 2.0299970076719314e-11
6900 1.993983976443547e-11
7000 1.9078929705361384e-11
7100 1.853213840451819e-11
7200 1.7791550047791333e-11
7300 1.6890443625596332e-11
7400 1.5913757331737955e-11
7500 1.5282337847776437e-11
7600 1.4012677557720812e-11
7700 1.2418149656485484e-11
7800 1.110417141087403e-11
7900 9.158411921153136e-12
8000 7.814430751866423e-12
8100 6.602155006541023e-12
8200 5.311303325683935e-12
8300 4.140965314226598e-12
8400 2.802723080941934e-12
8500 1.9815505362644544e-12
8600 8.092852979419711e-13
8700 1.0086152196905888e-13
8800 0.0
8900 0.0
9000 0.0
9100 0.0
9200 0.0
9300 0.0
9400 0.0
9500 0.0
9600 0.0
9700 0.0
9800 0.0
9900 0.0
10000 0.0
10100 0.0
10200 0.0
10300 0.0
10400 0.0
10500 0.0
10600 0.0
10700 0.0
10800 0.0
10900 0.0
11000 0.0
11100 0.0
11200 0.0
11300 0.0
11400 0.0
11500 0.0
11600 0.0
11700 0.0
11800 0.0
11900 0.0
12000 0.0
12100 0.0
12200 0.0
12300 0.0
12400 0.0
12500 0.0
12600 0.0
12700 0.0
12800 0.0
12900 0.0
13000 0.0
13100 0.0
13200 0.0
13300 0.0
13400 0.0
13500 0.0
13600 0.0
13700 0.0
13800 0.0
13900 0.0
14000 0.0
14100 0.0
14200 0.0
14300 0.0
14400 0.0
14500 0.0
14600 0.0
14700 0.0
14800 0.0
14900 0.0
15000 0.0
