
# Total neutron yield = 0.0  n/decay
	 f19 0.0
# Integral of spectrum = 8.518915300597565e-07  n/decay
100 0.0
200 0.0
300 0.0
400 0.0
500 0.0
600 0.0
700 0.0
800 0.0
900 0.0
1000 0.0
1100 0.0
1200 0.0
1300 0.0
1400 0.0
1500 0.0
1600 0.0
1700 0.0
1800 0.0
1900 0.0
2000 0.0
2100 0.0
2200 0.0
2300 0.0
2400 0.0
2500 0.0
2600 0.0
2700 0.0
2800 0.0
2900 0.0
3000 0.0
3100 0.0
3200 0.0
3300 0.0
3400 0.0
3500 0.0
3600 0.0
3700 0.0
3800 0.0
3900 0.0
4000 0.0
4100 0.0
4200 0.0
4300 0.0
4400 0.0
4500 0.0
4600 0.0
4700 2.0130241850800543e-12
4800 1.796568431787078e-11
4900 5.2439834263190695e-11
5000 1.0397736714611869e-10
5100 1.7788259855127935e-10
5200 2.5373524238545435e-10
5300 3.3695153070163926e-10
5400 4.4349339839748954e-10
5500 5.168090047478117e-10
5600 5.171723920456477e-10
5700 5.153243920686122e-10
5800 5.115272211212277e-10
5900 5.060019719700677e-10
6000 4.989367084648522e-10
6100 4.904933665963767e-10
6200 4.802071240111867e-10
6300 4.644423412411499e-10
6400 4.410418442794275e-10
6500 4.1274890512135327e-10
6600 3.7940894035086357e-10
6700 3.388691737433761e-10
6800 2.9459769912000917e-10
6900 2.4469158922840893e-10
7000 2.0250487536188803e-10
7100 1.5629183367171494e-10
7200 1.0166299775070309e-10
7300 4.899857901575954e-11
7400 8.725660739006478e-12
7500 0.0
7600 0.0
7700 0.0
7800 0.0
7900 0.0
8000 0.0
8100 0.0
8200 0.0
8300 0.0
8400 0.0
8500 0.0
8600 0.0
8700 0.0
8800 0.0
8900 0.0
9000 0.0
9100 0.0
9200 0.0
9300 0.0
9400 0.0
9500 0.0
9600 0.0
9700 0.0
9800 0.0
9900 0.0
10000 0.0
10100 0.0
10200 0.0
10300 0.0
10400 0.0
10500 0.0
10600 0.0
10700 0.0
10800 0.0
10900 0.0
11000 0.0
11100 0.0
11200 0.0
11300 0.0
11400 0.0
11500 0.0
11600 0.0
11700 0.0
11800 0.0
11900 0.0
12000 0.0
12100 0.0
12200 0.0
12300 0.0
12400 0.0
12500 0.0
12600 0.0
12700 0.0
12800 0.0
12900 0.0
13000 0.0
13100 0.0
13200 0.0
13300 0.0
13400 0.0
13500 0.0
13600 0.0
13700 0.0
13800 0.0
13900 0.0
14000 0.0
14100 0.0
14200 0.0
14300 0.0
14400 0.0
14500 0.0
14600 0.0
14700 0.0
14800 0.0
14900 0.0
15000 0.0
