
# Total neutron yield = 0.0  n/decay
	 f19 0.0
# Integral of spectrum = 2.2181109940327968e-07  n/decay
100 0.0
200 0.0
300 0.0
400 0.0
500 0.0
600 0.0
700 0.0
800 0.0
900 0.0
1000 0.0
1100 0.0
1200 0.0
1300 0.0
1400 0.0
1500 0.0
1600 0.0
1700 0.0
1800 0.0
1900 0.0
2000 0.0
2100 0.0
2200 0.0
2300 0.0
2400 0.0
2500 0.0
2600 0.0
2700 0.0
2800 0.0
2900 0.0
3000 0.0
3100 0.0
3200 0.0
3300 0.0
3400 0.0
3500 0.0
3600 0.0
3700 0.0
3800 0.0
3900 0.0
4000 0.0
4100 0.0
4200 0.0
4300 0.0
4400 0.0
4500 0.0
4600 5.151909114708662e-12
4700 3.2796642181962176e-11
4800 7.665142502577181e-11
4900 1.3509898729908364e-10
5000 1.4048578860215832e-10
5100 1.332571049003559e-10
5200 1.2713632196220428e-10
5300 1.2200801746289574e-10
5400 1.1777074449636246e-10
5500 1.1433410388038203e-10
5600 1.1161910446705609e-10
5700 1.0955490257008997e-10
5800 1.0807927419206968e-10
5900 1.0713690909236991e-10
6000 1.0667833075484497e-10
6100 1.0665951336007978e-10
6200 1.0704114774086566e-10
6300 1.0769702648497699e-10
6400 1.0439510275337344e-10
6500 9.442913145178014e-11
6600 7.524140575623326e-11
6700 5.259628116263786e-11
6800 2.2291819320533946e-11
6900 0.0
7000 0.0
7100 0.0
7200 0.0
7300 0.0
7400 0.0
7500 0.0
7600 0.0
7700 0.0
7800 0.0
7900 0.0
8000 0.0
8100 0.0
8200 0.0
8300 0.0
8400 0.0
8500 0.0
8600 0.0
8700 0.0
8800 0.0
8900 0.0
9000 0.0
9100 0.0
9200 0.0
9300 0.0
9400 0.0
9500 0.0
9600 0.0
9700 0.0
9800 0.0
9900 0.0
10000 0.0
10100 0.0
10200 0.0
10300 0.0
10400 0.0
10500 0.0
10600 0.0
10700 0.0
10800 0.0
10900 0.0
11000 0.0
11100 0.0
11200 0.0
11300 0.0
11400 0.0
11500 0.0
11600 0.0
11700 0.0
11800 0.0
11900 0.0
12000 0.0
12100 0.0
12200 0.0
12300 0.0
12400 0.0
12500 0.0
12600 0.0
12700 0.0
12800 0.0
12900 0.0
13000 0.0
13100 0.0
13200 0.0
13300 0.0
13400 0.0
13500 0.0
13600 0.0
13700 0.0
13800 0.0
13900 0.0
14000 0.0
14100 0.0
14200 0.0
14300 0.0
14400 0.0
14500 0.0
14600 0.0
14700 0.0
14800 0.0
14900 0.0
15000 0.0
