
# Total neutron yield = 0.0  n/decay
	 f19 0.0
# Integral of spectrum = 2.2065461088234566e-06  n/decay
100 0.0
200 0.0
300 0.0
400 0.0
500 0.0
600 0.0
700 0.0
800 0.0
900 0.0
1000 0.0
1100 0.0
1200 0.0
1300 0.0
1400 0.0
1500 0.0
1600 0.0
1700 0.0
1800 0.0
1900 0.0
2000 0.0
2100 0.0
2200 0.0
2300 0.0
2400 0.0
2500 0.0
2600 0.0
2700 0.0
2800 0.0
2900 0.0
3000 0.0
3100 0.0
3200 0.0
3300 0.0
3400 0.0
3500 0.0
3600 0.0
3700 0.0
3800 0.0
3900 0.0
4000 0.0
4100 0.0
4200 0.0
4300 0.0
4400 0.0
4500 0.0
4600 0.0
4700 8.218031360123971e-14
4800 9.986987672904543e-12
4900 3.570606268376679e-11
5000 7.717936528498806e-11
5100 1.357425368667628e-10
5200 2.054356875129646e-10
5300 2.959624300251426e-10
5400 3.9926784722773943e-10
5500 5.137686716819363e-10
5600 6.393102245054671e-10
5700 7.583708458363475e-10
5800 8.873258829325178e-10
5900 1.016517757646756e-09
6000 1.1426154414630717e-09
6100 1.2497311851314338e-09
6200 1.2119147454450291e-09
6300 1.1584741706339738e-09
6400 1.1088926929246992e-09
6500 1.0644670777059336e-09
6600 1.0201579678085932e-09
6700 9.791076237160362e-10
6800 9.38232126400584e-10
6900 8.921264385176393e-10
7000 8.482319906688866e-10
7100 7.96785013071957e-10
7200 7.484836544269772e-10
7300 6.974168038925811e-10
7400 6.356560486925127e-10
7500 5.762845495807534e-10
7600 5.062709668083442e-10
7700 4.417094489345064e-10
7800 3.662037374040911e-10
7900 2.9534361698585593e-10
8000 2.2066434811870395e-10
8100 1.3542178447621228e-10
8200 5.661317523529608e-11
8300 0.0
8400 0.0
8500 0.0
8600 0.0
8700 0.0
8800 0.0
8900 0.0
9000 0.0
9100 0.0
9200 0.0
9300 0.0
9400 0.0
9500 0.0
9600 0.0
9700 0.0
9800 0.0
9900 0.0
10000 0.0
10100 0.0
10200 0.0
10300 0.0
10400 0.0
10500 0.0
10600 0.0
10700 0.0
10800 0.0
10900 0.0
11000 0.0
11100 0.0
11200 0.0
11300 0.0
11400 0.0
11500 0.0
11600 0.0
11700 0.0
11800 0.0
11900 0.0
12000 0.0
12100 0.0
12200 0.0
12300 0.0
12400 0.0
12500 0.0
12600 0.0
12700 0.0
12800 0.0
12900 0.0
13000 0.0
13100 0.0
13200 0.0
13300 0.0
13400 0.0
13500 0.0
13600 0.0
13700 0.0
13800 0.0
13900 0.0
14000 0.0
14100 0.0
14200 0.0
14300 0.0
14400 0.0
14500 0.0
14600 0.0
14700 0.0
14800 0.0
14900 0.0
15000 0.0
