
# Total neutron yield = 0.0  n/decay
	 f19 0.0
# Integral of spectrum = 9.367248247148684e-07  n/decay
100 0.0
200 0.0
300 0.0
400 0.0
500 0.0
600 0.0
700 0.0
800 0.0
900 0.0
1000 0.0
1100 0.0
1200 0.0
1300 0.0
1400 0.0
1500 0.0
1600 0.0
1700 0.0
1800 0.0
1900 0.0
2000 0.0
2100 0.0
2200 0.0
2300 0.0
2400 0.0
2500 0.0
2600 0.0
2700 0.0
2800 0.0
2900 0.0
3000 0.0
3100 0.0
3200 0.0
3300 0.0
3400 0.0
3500 0.0
3600 0.0
3700 0.0
3800 0.0
3900 0.0
4000 0.0
4100 0.0
4200 0.0
4300 0.0
4400 0.0
4500 0.0
4600 0.0
4700 2.7526064658938197e-13
4800 7.682901277597916e-12
4900 2.349682377901756e-11
5000 4.960313839794704e-11
5100 8.417848179659045e-11
5200 1.2681862142909165e-10
5300 1.7519619211018322e-10
5400 2.2136865893735688e-10
5500 2.751708906899443e-10
5600 3.3054553652721935e-10
5700 3.8315547432631273e-10
5800 4.274525694426458e-10
5900 4.761917633753227e-10
6000 5.203004133857201e-10
6100 5.102396003203247e-10
6200 4.71658770059517e-10
6300 4.4301650293615716e-10
6400 4.2060988669622676e-10
6500 4.03572692401251e-10
6600 3.8984095263902225e-10
6700 3.759872643055586e-10
6800 3.6457540168705324e-10
6900 3.4994044741267094e-10
7000 3.3683494152211014e-10
7100 3.2301616114481507e-10
7200 3.0409930627077557e-10
7300 2.866710799336968e-10
7400 2.6220362292018536e-10
7500 2.3940453524141345e-10
7600 2.1038830804132123e-10
7700 1.8363250423635087e-10
7800 1.542324020792426e-10
7900 1.168077904645802e-10
8000 8.111979960478518e-11
8100 3.7959551110086414e-11
8200 0.0
8300 0.0
8400 0.0
8500 0.0
8600 0.0
8700 0.0
8800 0.0
8900 0.0
9000 0.0
9100 0.0
9200 0.0
9300 0.0
9400 0.0
9500 0.0
9600 0.0
9700 0.0
9800 0.0
9900 0.0
10000 0.0
10100 0.0
10200 0.0
10300 0.0
10400 0.0
10500 0.0
10600 0.0
10700 0.0
10800 0.0
10900 0.0
11000 0.0
11100 0.0
11200 0.0
11300 0.0
11400 0.0
11500 0.0
11600 0.0
11700 0.0
11800 0.0
11900 0.0
12000 0.0
12100 0.0
12200 0.0
12300 0.0
12400 0.0
12500 0.0
12600 0.0
12700 0.0
12800 0.0
12900 0.0
13000 0.0
13100 0.0
13200 0.0
13300 0.0
13400 0.0
13500 0.0
13600 0.0
13700 0.0
13800 0.0
13900 0.0
14000 0.0
14100 0.0
14200 0.0
14300 0.0
14400 0.0
14500 0.0
14600 0.0
14700 0.0
14800 0.0
14900 0.0
15000 0.0
