
# Total neutron yield = 0.0  n/decay
	 f19 0.0
# Integral of spectrum = 9.516712967982769e-07  n/decay
100 0.0
200 0.0
300 0.0
400 0.0
500 0.0
600 0.0
700 0.0
800 0.0
900 0.0
1000 0.0
1100 0.0
1200 0.0
1300 0.0
1400 0.0
1500 0.0
1600 0.0
1700 0.0
1800 0.0
1900 0.0
2000 0.0
2100 0.0
2200 0.0
2300 0.0
2400 0.0
2500 0.0
2600 0.0
2700 0.0
2800 0.0
2900 0.0
3000 0.0
3100 0.0
3200 0.0
3300 0.0
3400 0.0
3500 0.0
3600 0.0
3700 0.0
3800 0.0
3900 0.0
4000 0.0
4100 0.0
4200 0.0
4300 0.0
4400 0.0
4500 0.0
4600 0.0
4700 6.71397601618927e-13
4800 5.9920379754312394e-12
4900 1.7490092205645954e-11
5000 3.467924275626092e-11
5100 5.945979646405939e-11
5200 9.417535454575562e-11
5300 1.35746397022373e-10
5400 1.896048585712048e-10
5500 2.5352531128527623e-10
5600 3.2260287591609823e-10
5700 4.056143874107428e-10
5800 4.973431608657535e-10
5900 5.337555508197233e-10
6000 5.320054618748569e-10
6100 5.285201224678843e-10
6200 5.232606374481922e-10
6300 5.151150490855452e-10
6400 5.034545705581269e-10
6500 4.892770527246057e-10
6600 4.726083424273471e-10
6700 4.528032407808956e-10
6800 4.3108449789919835e-10
6900 4.0489600737624847e-10
7000 3.7730055098965284e-10
7100 3.472687667491427e-10
7200 3.126378880042686e-10
7300 2.7801715681573706e-10
7400 2.384747571982393e-10
7500 1.9987366540243068e-10
7600 1.5606016725848712e-10
7700 1.1407575485892015e-10
7800 6.683473729276596e-11
7900 2.2484077330280967e-11
8000 0.0
8100 0.0
8200 0.0
8300 0.0
8400 0.0
8500 0.0
8600 0.0
8700 0.0
8800 0.0
8900 0.0
9000 0.0
9100 0.0
9200 0.0
9300 0.0
9400 0.0
9500 0.0
9600 0.0
9700 0.0
9800 0.0
9900 0.0
10000 0.0
10100 0.0
10200 0.0
10300 0.0
10400 0.0
10500 0.0
10600 0.0
10700 0.0
10800 0.0
10900 0.0
11000 0.0
11100 0.0
11200 0.0
11300 0.0
11400 0.0
11500 0.0
11600 0.0
11700 0.0
11800 0.0
11900 0.0
12000 0.0
12100 0.0
12200 0.0
12300 0.0
12400 0.0
12500 0.0
12600 0.0
12700 0.0
12800 0.0
12900 0.0
13000 0.0
13100 0.0
13200 0.0
13300 0.0
13400 0.0
13500 0.0
13600 0.0
13700 0.0
13800 0.0
13900 0.0
14000 0.0
14100 0.0
14200 0.0
14300 0.0
14400 0.0
14500 0.0
14600 0.0
14700 0.0
14800 0.0
14900 0.0
15000 0.0
