
# Total neutron yield = 0.0  n/decay
	 be9 0.0
# Integral of spectrum = 5.1329676314670645e-05  n/decay
100 4.856631531210495e-09
200 5.734537140979873e-09
300 6.981302627537274e-09
400 1.400712001746341e-08
500 1.978915699266183e-08
600 2.5432919727559738e-08
700 2.815832252931416e-08
800 2.8848733533766494e-08
900 2.8130886478289196e-08
1000 2.761442746078965e-08
1100 2.705121776961603e-08
1200 2.645521546054718e-08
1300 2.5678216895053475e-08
1400 2.4484734257073826e-08
1500 2.2547430870562584e-08
1600 2.0658395953951483e-08
1700 1.8728385679180373e-08
1800 1.6995124317992233e-08
1900 1.55536469932761e-08
2000 1.4522869693748179e-08
2100 1.3826829709335286e-08
2200 1.3071403108910826e-08
2300 1.1940899101580506e-08
2400 1.0537548931836354e-08
2500 9.364076353378875e-09
2600 8.181006672188176e-09
2700 7.160224188357173e-09
2800 6.271408796420932e-09
2900 5.447939514690943e-09
3000 4.702035478793167e-09
3100 3.986896670903808e-09
3200 3.32800511064961e-09
3300 2.766676430189886e-09
3400 2.2865800244779264e-09
3500 1.8647038219781446e-09
3600 1.5114759409276768e-09
3700 1.2188975931374998e-09
3800 9.459081885193205e-10
3900 7.508747847135244e-10
4000 5.82820366452321e-10
4100 4.84802616708384e-10
4200 3.83632398267599e-10
4300 2.736398972263784e-10
4400 1.5408458618291326e-10
4500 2.511073541938949e-11
4600 1.6647693220110439e-15
4700 1.4763820720456585e-15
4800 1.293121407471824e-15
4900 1.0022564368882882e-15
5000 6.12760326097915e-16
5100 1.4559654765769346e-16
5200 0.0
5300 0.0
5400 0.0
5500 0.0
5600 0.0
5700 0.0
5800 0.0
5900 0.0
6000 0.0
6100 0.0
6200 0.0
6300 0.0
6400 0.0
6500 0.0
6600 0.0
6700 0.0
6800 0.0
6900 0.0
7000 0.0
7100 0.0
7200 0.0
7300 0.0
7400 0.0
7500 0.0
7600 0.0
7700 0.0
7800 0.0
7900 0.0
8000 0.0
8100 0.0
8200 0.0
8300 0.0
8400 0.0
8500 0.0
8600 0.0
8700 0.0
8800 0.0
8900 0.0
9000 0.0
9100 0.0
9200 0.0
9300 0.0
9400 0.0
9500 0.0
9600 0.0
9700 0.0
9800 0.0
9900 0.0
10000 0.0
10100 0.0
10200 0.0
10300 0.0
10400 0.0
10500 0.0
10600 0.0
10700 0.0
10800 0.0
10900 0.0
11000 0.0
11100 0.0
11200 0.0
11300 0.0
11400 0.0
11500 0.0
11600 0.0
11700 0.0
11800 0.0
11900 0.0
12000 0.0
12100 0.0
12200 0.0
12300 0.0
12400 0.0
12500 0.0
12600 0.0
12700 0.0
12800 0.0
12900 0.0
13000 0.0
13100 0.0
13200 0.0
13300 0.0
13400 0.0
13500 0.0
13600 0.0
13700 0.0
13800 0.0
13900 0.0
14000 0.0
14100 0.0
14200 0.0
14300 0.0
14400 0.0
14500 0.0
14600 0.0
14700 0.0
14800 0.0
14900 0.0
15000 0.0
