
# Total neutron yield = 0.0  n/decay
	 f19 0.0
# Integral of spectrum = 5.060654757973104e-06  n/decay
100 0.0
200 0.0
300 0.0
400 0.0
500 0.0
600 0.0
700 0.0
800 0.0
900 0.0
1000 0.0
1100 0.0
1200 0.0
1300 0.0
1400 0.0
1500 0.0
1600 0.0
1700 0.0
1800 0.0
1900 0.0
2000 0.0
2100 0.0
2200 0.0
2300 0.0
2400 0.0
2500 0.0
2600 0.0
2700 0.0
2800 0.0
2900 0.0
3000 0.0
3100 0.0
3200 0.0
3300 0.0
3400 0.0
3500 0.0
3600 0.0
3700 0.0
3800 0.0
3900 0.0
4000 0.0
4100 0.0
4200 0.0
4300 0.0
4400 0.0
4500 0.0
4600 1.8648980041141654e-11
4700 9.187213661315104e-11
4800 2.2187982223520183e-10
4900 3.884729113096645e-10
5000 6.040799345325808e-10
5100 7.803939630981317e-10
5200 9.631154369749137e-10
5300 1.1766885453424363e-09
5400 1.3019399714118257e-09
5500 1.4062577577033792e-09
5600 1.5190081833042768e-09
5700 1.624012514478759e-09
5800 1.7354772682013608e-09
5900 1.8451359438414537e-09
6000 1.9442239966972553e-09
6100 2.0483282727104546e-09
6200 2.1402368275789066e-09
6300 2.236941093564993e-09
6400 2.326533055347166e-09
6500 2.247183804650866e-09
6600 2.1529805180065456e-09
6700 2.0388294070141e-09
6800 1.9188785060043256e-09
6900 1.7887370199986737e-09
7000 1.6452911648844041e-09
7100 1.5360479013145772e-09
7200 1.4164440600293637e-09
7300 1.3029306642035038e-09
7400 1.1777155735967615e-09
7500 1.0751828772224938e-09
7600 1.0032252398900902e-09
7700 9.371108547768406e-10
7800 8.658993240476932e-10
7900 8.002891181535645e-10
8000 7.28998165221596e-10
8100 6.638177023023617e-10
8200 5.931087716923693e-10
8300 5.284013823579892e-10
8400 4.5779791431646274e-10
8500 3.9326668401630606e-10
8600 3.231809217475077e-10
8700 2.595538545797475e-10
8800 1.9039925251454862e-10
8900 1.2782872416200991e-10
9000 6.020155803929225e-11
9100 0.0
9200 0.0
9300 0.0
9400 0.0
9500 0.0
9600 0.0
9700 0.0
9800 0.0
9900 0.0
10000 0.0
10100 0.0
10200 0.0
10300 0.0
10400 0.0
10500 0.0
10600 0.0
10700 0.0
10800 0.0
10900 0.0
11000 0.0
11100 0.0
11200 0.0
11300 0.0
11400 0.0
11500 0.0
11600 0.0
11700 0.0
11800 0.0
11900 0.0
12000 0.0
12100 0.0
12200 0.0
12300 0.0
12400 0.0
12500 0.0
12600 0.0
12700 0.0
12800 0.0
12900 0.0
13000 0.0
13100 0.0
13200 0.0
13300 0.0
13400 0.0
13500 0.0
13600 0.0
13700 0.0
13800 0.0
13900 0.0
14000 0.0
14100 0.0
14200 0.0
14300 0.0
14400 0.0
14500 0.0
14600 0.0
14700 0.0
14800 0.0
14900 0.0
15000 0.0
