
# Total neutron yield = 0.0  n/decay
	 f19 0.0
# Integral of spectrum = 4.423505229077192e-06  n/decay
100 0.0
200 0.0
300 0.0
400 0.0
500 0.0
600 0.0
700 0.0
800 0.0
900 0.0
1000 0.0
1100 0.0
1200 0.0
1300 0.0
1400 0.0
1500 0.0
1600 0.0
1700 0.0
1800 0.0
1900 0.0
2000 0.0
2100 0.0
2200 0.0
2300 0.0
2400 0.0
2500 0.0
2600 0.0
2700 0.0
2800 0.0
2900 0.0
3000 0.0
3100 0.0
3200 0.0
3300 0.0
3400 0.0
3500 0.0
3600 0.0
3700 0.0
3800 0.0
3900 0.0
4000 0.0
4100 0.0
4200 0.0
4300 0.0
4400 0.0
4500 0.0
4600 7.852900718132965e-13
4700 1.6062584073282466e-11
4800 5.36757901049287e-11
4900 1.1730389861686546e-10
5000 1.853098144969807e-10
5100 2.69490440605316e-10
5200 3.7434634126666967e-10
5300 4.906107820127368e-10
5400 6.279399616723889e-10
5500 7.313151768184689e-10
5600 8.396835664702023e-10
5700 9.701466990579558e-10
5800 1.0424674312899573e-09
5900 1.1064819586079524e-09
6000 1.1827938873644892e-09
6100 1.2658247378406422e-09
6200 1.3485454526848749e-09
6300 1.4423467068785435e-09
6400 1.5277028359645167e-09
6500 1.6175932658950276e-09
6600 1.700820954655449e-09
6700 1.7731787424552235e-09
6800 1.8520859793369755e-09
6900 1.8065516771677898e-09
7000 1.7487943687774082e-09
7100 1.6867432514934762e-09
7200 1.6100594002372047e-09
7300 1.5305862416685335e-09
7400 1.4433655194837087e-09
7500 1.3540642668699963e-09
7600 1.2801062230142008e-09
7700 1.19555866440038e-09
7800 1.1127226712429881e-09
7900 1.019250807823494e-09
8000 9.508155111191916e-10
8100 8.91300120886761e-10
8200 8.342741068969631e-10
8300 7.721128878689631e-10
8400 7.131505230887365e-10
8500 6.492132614689851e-10
8600 5.892817604748566e-10
8700 5.245186531537819e-10
8800 4.642605446004399e-10
8900 3.991085645632295e-10
9000 3.3931231444994776e-10
9100 2.7529755841418657e-10
9200 2.1719969852035327e-10
9300 1.547380468460482e-10
9400 9.833254745108889e-11
9500 3.7820800547949526e-11
9600 0.0
9700 0.0
9800 0.0
9900 0.0
10000 0.0
10100 0.0
10200 0.0
10300 0.0
10400 0.0
10500 0.0
10600 0.0
10700 0.0
10800 0.0
10900 0.0
11000 0.0
11100 0.0
11200 0.0
11300 0.0
11400 0.0
11500 0.0
11600 0.0
11700 0.0
11800 0.0
11900 0.0
12000 0.0
12100 0.0
12200 0.0
12300 0.0
12400 0.0
12500 0.0
12600 0.0
12700 0.0
12800 0.0
12900 0.0
13000 0.0
13100 0.0
13200 0.0
13300 0.0
13400 0.0
13500 0.0
13600 0.0
13700 0.0
13800 0.0
13900 0.0
14000 0.0
14100 0.0
14200 0.0
14300 0.0
14400 0.0
14500 0.0
14600 0.0
14700 0.0
14800 0.0
14900 0.0
15000 0.0
