
# Total neutron yield = 0.0  n/decay
	 f19 0.0
# Integral of spectrum = 1.5378245638003066e-06  n/decay
100 0.0
200 0.0
300 0.0
400 0.0
500 0.0
600 0.0
700 0.0
800 0.0
900 0.0
1000 0.0
1100 0.0
1200 0.0
1300 0.0
1400 0.0
1500 0.0
1600 0.0
1700 0.0
1800 0.0
1900 0.0
2000 0.0
2100 0.0
2200 0.0
2300 0.0
2400 0.0
2500 0.0
2600 0.0
2700 0.0
2800 0.0
2900 0.0
3000 0.0
3100 0.0
3200 0.0
3300 0.0
3400 0.0
3500 0.0
3600 0.0
3700 0.0
3800 0.0
3900 0.0
4000 0.0
4100 0.0
4200 0.0
4300 0.0
4400 0.0
4500 6.449146385868958e-12
4600 2.943138731837931e-11
4700 6.588844418195101e-11
4800 1.204458212275951e-10
4900 1.822036127393223e-10
5000 2.574966313244311e-10
5100 3.4228446906689487e-10
5200 4.2679572926367393e-10
5300 5.196743430556161e-10
5400 6.082828783426904e-10
5500 7.042491575619689e-10
5600 7.448738073422715e-10
5700 7.311165045696121e-10
5800 7.172465990856725e-10
5900 7.035338707558525e-10
6000 6.901562787570469e-10
6100 6.772225549292672e-10
6200 6.647887077323081e-10
6300 6.528717846772864e-10
6400 6.414589625355138e-10
6500 6.266806450654599e-10
6600 6.080823331099554e-10
6700 5.841214674897841e-10
6800 5.57409319331257e-10
6900 5.245152937259372e-10
7000 4.904273431662243e-10
7100 4.5121726503827725e-10
7200 4.1277560664147066e-10
7300 3.685245608174863e-10
7400 3.25511317715971e-10
7500 2.7693741717117777e-10
7600 2.318520520721823e-10
7700 1.8182970280073806e-10
7800 1.3547229041085812e-10
7900 8.393626245369895e-11
8000 3.2482070139362834e-11
8100 0.0
8200 0.0
8300 0.0
8400 0.0
8500 0.0
8600 0.0
8700 0.0
8800 0.0
8900 0.0
9000 0.0
9100 0.0
9200 0.0
9300 0.0
9400 0.0
9500 0.0
9600 0.0
9700 0.0
9800 0.0
9900 0.0
10000 0.0
10100 0.0
10200 0.0
10300 0.0
10400 0.0
10500 0.0
10600 0.0
10700 0.0
10800 0.0
10900 0.0
11000 0.0
11100 0.0
11200 0.0
11300 0.0
11400 0.0
11500 0.0
11600 0.0
11700 0.0
11800 0.0
11900 0.0
12000 0.0
12100 0.0
12200 0.0
12300 0.0
12400 0.0
12500 0.0
12600 0.0
12700 0.0
12800 0.0
12900 0.0
13000 0.0
13100 0.0
13200 0.0
13300 0.0
13400 0.0
13500 0.0
13600 0.0
13700 0.0
13800 0.0
13900 0.0
14000 0.0
14100 0.0
14200 0.0
14300 0.0
14400 0.0
14500 0.0
14600 0.0
14700 0.0
14800 0.0
14900 0.0
15000 0.0
