
# Total neutron yield = 0.0  n/decay
	 f19 0.0
# Integral of spectrum = 1.7973861294391533e-05  n/decay
100 0.0
200 0.0
300 0.0
400 0.0
500 0.0
600 0.0
700 0.0
800 0.0
900 0.0
1000 0.0
1100 0.0
1200 0.0
1300 0.0
1400 0.0
1500 0.0
1600 0.0
1700 0.0
1800 0.0
1900 0.0
2000 0.0
2100 0.0
2200 0.0
2300 0.0
2400 0.0
2500 0.0
2600 0.0
2700 0.0
2800 0.0
2900 0.0
3000 0.0
3100 0.0
3200 0.0
3300 0.0
3400 0.0
3500 0.0
3600 0.0
3700 0.0
3800 0.0
3900 0.0
4000 0.0
4100 0.0
4200 0.0
4300 0.0
4400 0.0
4500 0.0
4600 0.0
4700 0.0
4800 3.464658329300596e-13
4900 7.257395788893622e-12
5000 3.268540466640306e-11
5100 7.794740263931892e-11
5200 1.4368739268543318e-10
5300 2.4669173855034344e-10
5400 3.905705992342064e-10
5500 5.740808735676437e-10
5600 8.050097894420086e-10
5700 1.0668373668395373e-09
5800 1.3939924784995985e-09
5900 1.7737910805662334e-09
6000 2.209606229661289e-09
6100 2.6996018354346016e-09
6200 3.230298094062507e-09
6300 3.729519696601677e-09
6400 4.165009012009285e-09
6500 4.611532754789041e-09
6600 5.062151627258264e-09
6700 5.48024429559491e-09
6800 5.808504759813479e-09
6900 6.059752005500045e-09
7000 6.294018851297357e-09
7100 6.410240562782395e-09
7200 6.418878604246995e-09
7300 6.401905390382487e-09
7400 6.348035550956493e-09
7500 6.2742949031484e-09
7600 6.176966946495852e-09
7700 6.077560450346797e-09
7800 5.948552464674826e-09
7900 5.792814734350406e-09
8000 5.6423985026854954e-09
8100 5.453102043140645e-09
8200 5.17508363736931e-09
8300 4.812265705031358e-09
8400 4.456934838324821e-09
8500 4.152162028642665e-09
8600 3.825423204345337e-09
8700 3.52500846998018e-09
8800 3.2302319516959015e-09
8900 2.917762078912632e-09
9000 2.633472597902769e-09
9100 2.393654820915987e-09
9200 2.197902213716323e-09
9300 1.989422364034471e-09
9400 1.8008238491613867e-09
9500 1.6156290568735727e-09
9600 1.4926244835165938e-09
9700 1.3967417652197815e-09
9800 1.2935065593464649e-09
9900 1.1996917058261014e-09
10000 1.0977418570371993e-09
10100 1.0047790093470493e-09
10200 9.033258281966022e-10
10300 8.10513158649899e-10
10400 7.088126653373635e-10
10500 6.155835426419083e-10
10600 5.224243567191502e-10
10700 4.2093470924352984e-10
10800 3.2861676131695807e-10
10900 2.285802809569146e-10
11000 1.385487264482961e-10
11100 4.2523413659044164e-11
11200 0.0
11300 0.0
11400 0.0
11500 0.0
11600 0.0
11700 0.0
11800 0.0
11900 0.0
12000 0.0
12100 0.0
12200 0.0
12300 0.0
12400 0.0
12500 0.0
12600 0.0
12700 0.0
12800 0.0
12900 0.0
13000 0.0
13100 0.0
13200 0.0
13300 0.0
13400 0.0
13500 0.0
13600 0.0
13700 0.0
13800 0.0
13900 0.0
14000 0.0
14100 0.0
14200 0.0
14300 0.0
14400 0.0
14500 0.0
14600 0.0
14700 0.0
14800 0.0
14900 0.0
15000 0.0
