
# Total neutron yield = 0.0  n/decay
	 f19 0.0
# Integral of spectrum = 1.1823436391095844e-07  n/decay
100 0.0
200 0.0
300 0.0
400 0.0
500 0.0
600 0.0
700 0.0
800 0.0
900 0.0
1000 0.0
1100 0.0
1200 0.0
1300 0.0
1400 0.0
1500 0.0
1600 0.0
1700 0.0
1800 0.0
1900 0.0
2000 0.0
2100 0.0
2200 0.0
2300 0.0
2400 0.0
2500 0.0
2600 0.0
2700 0.0
2800 0.0
2900 0.0
3000 0.0
3100 0.0
3200 0.0
3300 0.0
3400 0.0
3500 0.0
3600 0.0
3700 0.0
3800 0.0
3900 0.0
4000 0.0
4100 0.0
4200 0.0
4300 0.0
4400 4.403027181658829e-12
4500 2.6116897842172077e-11
4600 6.459535942209073e-11
4700 6.258847950339774e-11
4800 6.075539802462619e-11
4900 5.907891925516431e-11
5000 5.7543859829837e-11
5100 5.6136889186848494e-11
5200 5.4846160308623e-11
5300 5.3661241874404326e-11
5400 5.257287214427918e-11
5500 5.1572788969733316e-11
5600 5.0653601797691164e-11
5700 4.9808695349322925e-11
5800 4.903218964234363e-11
5900 4.8318729030063075e-11
6000 4.766350170127736e-11
6100 4.706221295785751e-11
6200 4.6510927843958616e-11
6300 4.60061005574605e-11
6400 4.5544525616314044e-11
6500 4.5123235008990666e-11
6600 4.283304336559114e-11
6700 3.5145255718027e-11
6800 2.0926160291107627e-11
6900 3.843566686743834e-12
7000 0.0
7100 0.0
7200 0.0
7300 0.0
7400 0.0
7500 0.0
7600 0.0
7700 0.0
7800 0.0
7900 0.0
8000 0.0
8100 0.0
8200 0.0
8300 0.0
8400 0.0
8500 0.0
8600 0.0
8700 0.0
8800 0.0
8900 0.0
9000 0.0
9100 0.0
9200 0.0
9300 0.0
9400 0.0
9500 0.0
9600 0.0
9700 0.0
9800 0.0
9900 0.0
10000 0.0
10100 0.0
10200 0.0
10300 0.0
10400 0.0
10500 0.0
10600 0.0
10700 0.0
10800 0.0
10900 0.0
11000 0.0
11100 0.0
11200 0.0
11300 0.0
11400 0.0
11500 0.0
11600 0.0
11700 0.0
11800 0.0
11900 0.0
12000 0.0
12100 0.0
12200 0.0
12300 0.0
12400 0.0
12500 0.0
12600 0.0
12700 0.0
12800 0.0
12900 0.0
13000 0.0
13100 0.0
13200 0.0
13300 0.0
13400 0.0
13500 0.0
13600 0.0
13700 0.0
13800 0.0
13900 0.0
14000 0.0
14100 0.0
14200 0.0
14300 0.0
14400 0.0
14500 0.0
14600 0.0
14700 0.0
14800 0.0
14900 0.0
15000 0.0
