
# Total neutron yield = 0.0  n/decay
	 f19 0.0
# Integral of spectrum = 9.349489555659987e-06  n/decay
100 0.0
200 0.0
300 0.0
400 0.0
500 0.0
600 0.0
700 0.0
800 0.0
900 0.0
1000 0.0
1100 0.0
1200 0.0
1300 0.0
1400 0.0
1500 0.0
1600 0.0
1700 0.0
1800 0.0
1900 0.0
2000 0.0
2100 0.0
2200 0.0
2300 0.0
2400 0.0
2500 0.0
2600 0.0
2700 0.0
2800 0.0
2900 0.0
3000 0.0
3100 0.0
3200 0.0
3300 0.0
3400 0.0
3500 0.0
3600 0.0
3700 0.0
3800 0.0
3900 0.0
4000 0.0
4100 0.0
4200 0.0
4300 0.0
4400 0.0
4500 0.0
4600 0.0
4700 2.6856042049922097e-12
4800 2.396827504966989e-11
4900 6.996072897862653e-11
5000 1.3871768576366732e-10
5100 2.3784041177349027e-10
5200 3.767029814998025e-10
5300 5.42985147511649e-10
5400 7.577630200581332e-10
5500 1.0056178544143792e-09
5600 1.2136496414012616e-09
5700 1.4623257375697184e-09
5800 1.736146406967858e-09
5900 2.034269559345371e-09
6000 2.279304778595162e-09
6100 2.5015161330289296e-09
6200 2.7331439310140877e-09
6300 2.9185144639488334e-09
6400 3.0130274653185854e-09
6500 3.101115606180417e-09
6600 3.1731951338196535e-09
6700 3.24402616819654e-09
6800 3.308456715358133e-09
6900 3.3456523966836326e-09
7000 3.3867716766838845e-09
7100 3.416058589141273e-09
7200 3.414445145996701e-09
7300 3.421422078712291e-09
7400 3.3430718095236963e-09
7500 3.182090053690975e-09
7600 3.012136172259758e-09
7700 2.8456642553485486e-09
7800 2.661557959129943e-09
7900 2.484508726259129e-09
8000 2.3033872235330008e-09
8100 2.1038859351062526e-09
8200 1.9605091908054694e-09
8300 1.8102163701597682e-09
8400 1.6692533772982165e-09
8500 1.515658261355487e-09
8600 1.3724098366911116e-09
8700 1.2833230220310945e-09
8800 1.200654887506022e-09
8900 1.1116642762412695e-09
9000 1.029180866719089e-09
9100 9.398799131348705e-10
9200 8.575641482485377e-10
9300 7.755487824844515e-10
9400 6.865273256399487e-10
9500 6.048249927401684e-10
9600 5.160097455069105e-10
9700 4.3538983765956633e-10
9800 3.482506423210556e-10
9900 2.694233102683027e-10
10000 1.8381389244925901e-10
10100 1.0650915868072328e-10
10200 2.269824659050063e-11
10300 0.0
10400 0.0
10500 0.0
10600 0.0
10700 0.0
10800 0.0
10900 0.0
11000 0.0
11100 0.0
11200 0.0
11300 0.0
11400 0.0
11500 0.0
11600 0.0
11700 0.0
11800 0.0
11900 0.0
12000 0.0
12100 0.0
12200 0.0
12300 0.0
12400 0.0
12500 0.0
12600 0.0
12700 0.0
12800 0.0
12900 0.0
13000 0.0
13100 0.0
13200 0.0
13300 0.0
13400 0.0
13500 0.0
13600 0.0
13700 0.0
13800 0.0
13900 0.0
14000 0.0
14100 0.0
14200 0.0
14300 0.0
14400 0.0
14500 0.0
14600 0.0
14700 0.0
14800 0.0
14900 0.0
15000 0.0
