
# Total neutron yield = 0.0  n/decay
	 f19 0.0
# Integral of spectrum = 1.2150713678644965e-06  n/decay
100 0.0
200 0.0
300 0.0
400 0.0
500 0.0
600 0.0
700 0.0
800 0.0
900 0.0
1000 0.0
1100 0.0
1200 0.0
1300 0.0
1400 0.0
1500 0.0
1600 0.0
1700 0.0
1800 0.0
1900 0.0
2000 0.0
2100 0.0
2200 0.0
2300 0.0
2400 0.0
2500 0.0
2600 0.0
2700 0.0
2800 0.0
2900 0.0
3000 0.0
3100 0.0
3200 0.0
3300 0.0
3400 0.0
3500 0.0
3600 0.0
3700 0.0
3800 0.0
3900 0.0
4000 0.0
4100 0.0
4200 0.0
4300 0.0
4400 0.0
4500 5.009885793196016e-12
4600 2.783399202020915e-11
4700 6.899223109097743e-11
4800 1.1950716506594725e-10
4900 1.822100263303784e-10
5000 2.4820957824850337e-10
5100 3.2492301911691714e-10
5200 3.9661458455230534e-10
5300 4.74813124801544e-10
5400 5.532995059154978e-10
5500 5.986647638714965e-10
5600 5.778231286458166e-10
5700 5.595952184329008e-10
5800 5.437298785869849e-10
5900 5.300005883564493e-10
6000 5.182040305250795e-10
6100 5.081591907680989e-10
6200 4.997056378947965e-10
6300 4.927018872805191e-10
6400 4.870233720132664e-10
6500 4.80630869566085e-10
6600 4.703516726580348e-10
6700 4.5445419012050834e-10
6800 4.3518718552798147e-10
6900 4.0940050085305054e-10
7000 3.8323312106294805e-10
7100 3.514560843849447e-10
7200 3.1983198235154534e-10
7300 2.816940712894092e-10
7400 2.4503493071829e-10
7500 2.035044368768085e-10
7600 1.6481131342109803e-10
7700 1.2081623916027016e-10
7800 7.964890885814191e-11
7900 3.3637362484964453e-11
8000 0.0
8100 0.0
8200 0.0
8300 0.0
8400 0.0
8500 0.0
8600 0.0
8700 0.0
8800 0.0
8900 0.0
9000 0.0
9100 0.0
9200 0.0
9300 0.0
9400 0.0
9500 0.0
9600 0.0
9700 0.0
9800 0.0
9900 0.0
10000 0.0
10100 0.0
10200 0.0
10300 0.0
10400 0.0
10500 0.0
10600 0.0
10700 0.0
10800 0.0
10900 0.0
11000 0.0
11100 0.0
11200 0.0
11300 0.0
11400 0.0
11500 0.0
11600 0.0
11700 0.0
11800 0.0
11900 0.0
12000 0.0
12100 0.0
12200 0.0
12300 0.0
12400 0.0
12500 0.0
12600 0.0
12700 0.0
12800 0.0
12900 0.0
13000 0.0
13100 0.0
13200 0.0
13300 0.0
13400 0.0
13500 0.0
13600 0.0
13700 0.0
13800 0.0
13900 0.0
14000 0.0
14100 0.0
14200 0.0
14300 0.0
14400 0.0
14500 0.0
14600 0.0
14700 0.0
14800 0.0
14900 0.0
15000 0.0
