
# Total neutron yield = 0.0  n/decay
	 n14 0.0
	 n15 0.0
# Integral of spectrum = 7.769806875713092e-07  n/decay
100 0.0
200 0.0
300 0.0
400 0.0
500 0.0
600 0.0
700 0.0
800 0.0
900 0.0
1000 0.0
1100 0.0
1200 0.0
1300 0.0
1400 0.0
1500 0.0
1600 0.0
1700 0.0
1800 0.0
1900 0.0
2000 0.0
2100 0.0
2200 0.0
2300 0.0
2400 0.0
2500 0.0
2600 0.0
2700 0.0
2800 0.0
2900 0.0
3000 0.0
3100 0.0
3200 0.0
3300 5.5612097784833005e-12
3400 5.210313794440014e-11
3500 1.3133172904376407e-10
3600 2.296992711462065e-10
3700 3.490883734044155e-10
3800 4.07037482906782e-10
3900 3.791682479595383e-10
4000 3.555930858758575e-10
4100 3.3563658605743686e-10
4200 3.187545019392034e-10
4300 3.04496973766496e-10
4400 2.9249695209829886e-10
4500 2.824514338159766e-10
4600 2.741089837074227e-10
4700 2.6726093037254113e-10
4800 2.6173287535438803e-10
4900 2.573789695994399e-10
5000 2.540772101945916e-10
5100 2.517245338447139e-10
5200 2.502336868892414e-10
5300 2.495315829070571e-10
5400 2.495557032817942e-10
5500 2.502529276628636e-10
5600 2.515786708212127e-10
5700 2.5311208548016185e-10
5800 2.4936764531118177e-10
5900 2.3566579782009177e-10
6000 2.1496898523283773e-10
6100 1.8895759196125136e-10
6200 1.5579802396117648e-10
6300 1.15666152279463e-10
6400 7.280573232558573e-11
6500 2.2609800969217745e-11
6600 0.0
6700 0.0
6800 0.0
6900 0.0
7000 0.0
7100 0.0
7200 0.0
7300 0.0
7400 0.0
7500 0.0
7600 0.0
7700 0.0
7800 0.0
7900 0.0
8000 0.0
8100 0.0
8200 0.0
8300 0.0
8400 0.0
8500 0.0
8600 0.0
8700 0.0
8800 0.0
8900 0.0
9000 0.0
9100 0.0
9200 0.0
9300 0.0
9400 0.0
9500 0.0
9600 0.0
9700 0.0
9800 0.0
9900 0.0
10000 0.0
10100 0.0
10200 0.0
10300 0.0
10400 0.0
10500 0.0
10600 0.0
10700 0.0
10800 0.0
10900 0.0
11000 0.0
11100 0.0
11200 0.0
11300 0.0
11400 0.0
11500 0.0
11600 0.0
11700 0.0
11800 0.0
11900 0.0
12000 0.0
12100 0.0
12200 0.0
12300 0.0
12400 0.0
12500 0.0
12600 0.0
12700 0.0
12800 0.0
12900 0.0
13000 0.0
13100 0.0
13200 0.0
13300 0.0
13400 0.0
13500 0.0
13600 0.0
13700 0.0
13800 0.0
13900 0.0
14000 0.0
14100 0.0
14200 0.0
14300 0.0
14400 0.0
14500 0.0
14600 0.0
14700 0.0
14800 0.0
14900 0.0
15000 0.0
