
# Total neutron yield = 0.0  n/decay
	 n14 0.0
	 n15 0.0
# Integral of spectrum = 3.6771424731085584e-06  n/decay
100 0.0
200 0.0
300 0.0
400 0.0
500 0.0
600 0.0
700 0.0
800 0.0
900 0.0
1000 0.0
1100 0.0
1200 0.0
1300 0.0
1400 0.0
1500 0.0
1600 0.0
1700 0.0
1800 0.0
1900 0.0
2000 0.0
2100 0.0
2200 0.0
2300 0.0
2400 0.0
2500 0.0
2600 0.0
2700 0.0
2800 0.0
2900 0.0
3000 0.0
3100 0.0
3200 0.0
3300 5.600348864757333e-14
3400 1.6816813285004985e-11
3500 1.0151865558396306e-10
3600 2.8347993867264326e-10
3700 5.984998281549838e-10
3800 8.229563558451256e-10
3900 1.0507669952050327e-09
4000 1.3005092195331969e-09
4100 1.5767105355976707e-09
4200 1.715009114225771e-09
4300 1.6383802726426293e-09
4400 1.5713331867422488e-09
4500 1.5126137760222147e-09
4600 1.4611609176403394e-09
4700 1.4160730168858688e-09
4800 1.3765892349584192e-09
4900 1.3420628111558368e-09
5000 1.3119447429097887e-09
5100 1.285767259617133e-09
5200 1.2631301613450321e-09
5300 1.2436928650759554e-09
5400 1.2271624535085706e-09
5500 1.2132860317879678e-09
5600 1.201836020628333e-09
5700 1.1918003482855628e-09
5800 1.1702768961846694e-09
5900 1.1344098306696845e-09
6000 1.101712083296991e-09
6100 1.0272587969981327e-09
6200 9.034942822697526e-10
6300 7.978450165117139e-10
6400 6.997330894759895e-10
6500 6.292870010300638e-10
6600 5.32432055226782e-10
6700 4.290660355906039e-10
6800 3.295585857123188e-10
6900 2.0819085957548146e-10
7000 8.500363974545422e-11
7100 0.0
7200 0.0
7300 0.0
7400 0.0
7500 0.0
7600 0.0
7700 0.0
7800 0.0
7900 0.0
8000 0.0
8100 0.0
8200 0.0
8300 0.0
8400 0.0
8500 0.0
8600 0.0
8700 0.0
8800 0.0
8900 0.0
9000 0.0
9100 0.0
9200 0.0
9300 0.0
9400 0.0
9500 0.0
9600 0.0
9700 0.0
9800 0.0
9900 0.0
10000 0.0
10100 0.0
10200 0.0
10300 0.0
10400 0.0
10500 0.0
10600 0.0
10700 0.0
10800 0.0
10900 0.0
11000 0.0
11100 0.0
11200 0.0
11300 0.0
11400 0.0
11500 0.0
11600 0.0
11700 0.0
11800 0.0
11900 0.0
12000 0.0
12100 0.0
12200 0.0
12300 0.0
12400 0.0
12500 0.0
12600 0.0
12700 0.0
12800 0.0
12900 0.0
13000 0.0
13100 0.0
13200 0.0
13300 0.0
13400 0.0
13500 0.0
13600 0.0
13700 0.0
13800 0.0
13900 0.0
14000 0.0
14100 0.0
14200 0.0
14300 0.0
14400 0.0
14500 0.0
14600 0.0
14700 0.0
14800 0.0
14900 0.0
15000 0.0
