
# Total neutron yield = 0.0  n/decay
	 be9 0.0
# Integral of spectrum = 4.634571332293946e-05  n/decay
100 4.158056993961635e-09
200 4.90968526497232e-09
300 5.96196498172461e-09
400 1.0832746155792552e-08
500 1.520986614472221e-08
600 2.0016654603854902e-08
700 2.2614020170232155e-08
800 2.4192433229879502e-08
900 2.3627206760777147e-08
1000 2.2983848219505862e-08
1100 2.2599635712264834e-08
1200 2.225835116841809e-08
1300 2.144714062492772e-08
1400 2.046325812582949e-08
1500 1.8937501111844676e-08
1600 1.744242099104213e-08
1700 1.6013320425020455e-08
1800 1.4897136616653791e-08
1900 1.3983488729157834e-08
2000 1.3390397155723433e-08
2100 1.3062901140476418e-08
2200 1.268903449240764e-08
2300 1.1798758031760658e-08
2400 1.0392916630917583e-08
2500 9.171667261829424e-09
2600 7.981075194765255e-09
2700 7.011903480044232e-09
2800 6.2839073517797375e-09
2900 5.5937614486590265e-09
3000 4.967711630378147e-09
3100 4.3416822484580945e-09
3200 3.749904691331302e-09
3300 3.231847758031624e-09
3400 2.8044346415994406e-09
3500 2.4439602864246257e-09
3600 2.1901610153242477e-09
3700 1.972845364362346e-09
3800 1.7607775350113089e-09
3900 1.5643116247757444e-09
4000 1.4120311341452153e-09
4100 1.31602341190318e-09
4200 1.2232919942456588e-09
4300 1.1338921205298675e-09
4400 1.051767777666585e-09
4500 9.820167232755502e-10
4600 9.237124632599344e-10
4700 8.718932549382683e-10
4800 8.347513833734255e-10
4900 7.847330537993848e-10
5000 7.283333027753256e-10
5100 6.753949117385645e-10
5200 6.22543178255985e-10
5300 5.632847936303689e-10
5400 4.934038795663941e-10
5500 4.0846268309009396e-10
5600 3.038353267270706e-10
5700 1.750668218316136e-10
5800 0.0
5900 0.0
6000 0.0
6100 0.0
6200 0.0
6300 0.0
6400 0.0
6500 0.0
6600 0.0
6700 0.0
6800 0.0
6900 0.0
7000 0.0
7100 0.0
7200 0.0
7300 0.0
7400 0.0
7500 0.0
7600 0.0
7700 0.0
7800 0.0
7900 0.0
8000 0.0
8100 0.0
8200 0.0
8300 0.0
8400 0.0
8500 0.0
8600 0.0
8700 0.0
8800 0.0
8900 0.0
9000 0.0
9100 0.0
9200 0.0
9300 0.0
9400 0.0
9500 0.0
9600 0.0
9700 0.0
9800 0.0
9900 0.0
10000 0.0
10100 0.0
10200 0.0
10300 0.0
10400 0.0
10500 0.0
10600 0.0
10700 0.0
10800 0.0
10900 0.0
11000 0.0
11100 0.0
11200 0.0
11300 0.0
11400 0.0
11500 0.0
11600 0.0
11700 0.0
11800 0.0
11900 0.0
12000 0.0
12100 0.0
12200 0.0
12300 0.0
12400 0.0
12500 0.0
12600 0.0
12700 0.0
12800 0.0
12900 0.0
13000 0.0
13100 0.0
13200 0.0
13300 0.0
13400 0.0
13500 0.0
13600 0.0
13700 0.0
13800 0.0
13900 0.0
14000 0.0
14100 0.0
14200 0.0
14300 0.0
14400 0.0
14500 0.0
14600 0.0
14700 0.0
14800 0.0
14900 0.0
15000 0.0
