
# Total neutron yield = 0.0  n/decay
	 o16 0.0
	 o17 0.0
	 o18 0.0
# Integral of spectrum = 8.507460937055732e-09  n/decay
100 0.0
200 0.0
300 0.0
400 0.0
500 0.0
600 0.0
700 0.0
800 0.0
900 0.0
1000 0.0
1100 0.0
1200 0.0
1300 0.0
1400 0.0
1500 0.0
1600 0.0
1700 0.0
1800 0.0
1900 0.0
2000 0.0
2100 0.0
2200 0.0
2300 0.0
2400 0.0
2500 0.0
2600 0.0
2700 0.0
2800 0.0
2900 0.0
3000 0.0
3100 0.0
3200 0.0
3300 0.0
3400 0.0
3500 0.0
3600 0.0
3700 0.0
3800 0.0
3900 0.0
4000 0.0
4100 1.3156093597496322e-14
4200 1.0644139519045978e-13
4300 2.9958069904087936e-13
4400 5.540294442777845e-13
4500 9.416293837652946e-13
4600 1.3870470133233809e-12
4700 1.888956528830547e-12
4800 2.342978509760252e-12
4900 2.715197843559166e-12
5000 3.061513437002954e-12
5100 3.373346573012538e-12
5200 3.6674997813549796e-12
5300 3.910307763029761e-12
5400 3.969849902436047e-12
5500 3.932232041433009e-12
5600 3.872657841611046e-12
5700 3.80683269443194e-12
5800 3.739272538304471e-12
5900 3.670049570616912e-12
6000 3.5862831856180976e-12
6100 3.4914623096275397e-12
6200 3.3810049433932457e-12
6300 3.228294061993751e-12
6400 3.088423587909231e-12
6500 2.9069333089854416e-12
6600 2.6933351956061264e-12
6700 2.473079531297686e-12
6800 2.207437417077704e-12
6900 1.935217662939301e-12
7000 1.719584795747274e-12
7100 1.50207970982071e-12
7200 1.3056236555759574e-12
7300 1.1093741140582557e-12
7400 9.329923485130243e-13
7500 7.382392629310152e-13
7600 5.636324339762867e-13
7700 3.810067016688442e-13
7800 2.3593258121781847e-13
7900 1.434391114023175e-13
8000 8.15154481276404e-14
8100 5.4683627974364725e-14
8200 3.299722079085543e-14
8300 1.90842345571837e-14
8400 8.981427686018944e-15
8500 1.392275197951528e-15
8600 5.3046305393574195e-20
8700 4.1432749278810825e-20
8800 3.07123751495144e-20
8900 2.167191195395463e-20
9000 1.2243430945487947e-20
9100 3.1780043441802826e-21
9200 0.0
9300 0.0
9400 0.0
9500 0.0
9600 0.0
9700 0.0
9800 0.0
9900 0.0
10000 0.0
10100 0.0
10200 0.0
10300 0.0
10400 0.0
10500 0.0
10600 0.0
10700 0.0
10800 0.0
10900 0.0
11000 0.0
11100 0.0
11200 0.0
11300 0.0
11400 0.0
11500 0.0
11600 0.0
11700 0.0
11800 0.0
11900 0.0
12000 0.0
12100 0.0
12200 0.0
12300 0.0
12400 0.0
12500 0.0
12600 0.0
12700 0.0
12800 0.0
12900 0.0
13000 0.0
13100 0.0
13200 0.0
13300 0.0
13400 0.0
13500 0.0
13600 0.0
13700 0.0
13800 0.0
13900 0.0
14000 0.0
14100 0.0
14200 0.0
14300 0.0
14400 0.0
14500 0.0
14600 0.0
14700 0.0
14800 0.0
14900 0.0
15000 0.0
