
# Total neutron yield = 0.0  n/decay
	 o16 0.0
	 o17 0.0
	 o18 0.0
# Integral of spectrum = 1.0779956806721639e-08  n/decay
100 0.0
200 0.0
300 0.0
400 0.0
500 0.0
600 0.0
700 0.0
800 0.0
900 0.0
1000 0.0
1100 0.0
1200 0.0
1300 0.0
1400 0.0
1500 0.0
1600 0.0
1700 0.0
1800 0.0
1900 0.0
2000 0.0
2100 0.0
2200 0.0
2300 0.0
2400 0.0
2500 0.0
2600 0.0
2700 0.0
2800 0.0
2900 0.0
3000 0.0
3100 0.0
3200 0.0
3300 0.0
3400 0.0
3500 0.0
3600 0.0
3700 0.0
3800 0.0
3900 0.0
4000 6.0234971270384675e-21
4100 2.439355712430896e-14
4200 2.5397372242066996e-13
4300 1.3452120405107394e-12
4400 2.690715680325586e-12
4500 3.743032829757325e-12
4600 4.313765844464954e-12
4700 4.7772353014487185e-12
4800 4.970331057514731e-12
4900 4.9924179056802326e-12
5000 4.909388813247361e-12
5100 4.7906670106513585e-12
5200 4.720399990012887e-12
5300 4.6407768715448954e-12
5400 4.586474405746783e-12
5500 4.578022297989421e-12
5600 4.600925998287504e-12
5700 4.644930598732894e-12
5800 4.721315581526729e-12
5900 4.82401711021925e-12
6000 4.869071746090079e-12
6100 4.319679281130582e-12
6200 3.7965042066787094e-12
6300 3.4181176502730268e-12
6400 2.884459516342969e-12
6500 2.5892648297334197e-12
6600 2.195263507327469e-12
6700 1.8470840099973858e-12
6800 1.553703427006392e-12
6900 1.2378978158592265e-12
7000 9.965361580292436e-13
7100 7.931099786833245e-13
7200 6.459835766158135e-13
7300 5.486922628138301e-13
7400 4.3784221673750723e-13
7500 3.577265309179928e-13
7600 2.8659096968438027e-13
7700 2.3429114427580854e-13
7800 1.8299985395987648e-13
7900 1.415139913985982e-13
8000 9.684829644667401e-14
8100 7.260972522063317e-14
8200 5.178636554048888e-14
8300 4.264453033811569e-14
8400 3.245221878438021e-14
8500 2.3511117094093243e-14
8600 1.3029968783780617e-14
8700 2.356274731510625e-15
8800 8.112825079166172e-20
8900 6.687096002248068e-20
9000 5.249210241744139e-20
9100 3.982010118505263e-20
9200 2.4394661777379348e-20
9300 8.785171061131005e-21
9400 0.0
9500 0.0
9600 0.0
9700 0.0
9800 0.0
9900 0.0
10000 0.0
10100 0.0
10200 0.0
10300 0.0
10400 0.0
10500 0.0
10600 0.0
10700 0.0
10800 0.0
10900 0.0
11000 0.0
11100 0.0
11200 0.0
11300 0.0
11400 0.0
11500 0.0
11600 0.0
11700 0.0
11800 0.0
11900 0.0
12000 0.0
12100 0.0
12200 0.0
12300 0.0
12400 0.0
12500 0.0
12600 0.0
12700 0.0
12800 0.0
12900 0.0
13000 0.0
13100 0.0
13200 0.0
13300 0.0
13400 0.0
13500 0.0
13600 0.0
13700 0.0
13800 0.0
13900 0.0
14000 0.0
14100 0.0
14200 0.0
14300 0.0
14400 0.0
14500 0.0
14600 0.0
14700 0.0
14800 0.0
14900 0.0
15000 0.0
