
# Total neutron yield = 0.0  n/decay
	 o16 0.0
	 o17 0.0
	 o18 0.0
# Integral of spectrum = 8.241620758172099e-09  n/decay
100 0.0
200 0.0
300 0.0
400 0.0
500 0.0
600 0.0
700 0.0
800 0.0
900 0.0
1000 0.0
1100 0.0
1200 0.0
1300 0.0
1400 0.0
1500 0.0
1600 0.0
1700 0.0
1800 0.0
1900 0.0
2000 0.0
2100 0.0
2200 0.0
2300 0.0
2400 0.0
2500 0.0
2600 0.0
2700 0.0
2800 0.0
2900 0.0
3000 0.0
3100 0.0
3200 0.0
3300 0.0
3400 0.0
3500 0.0
3600 0.0
3700 0.0
3800 0.0
3900 0.0
4000 0.0
4100 2.5130549754584966e-15
4200 1.0340897388478427e-13
4300 1.0480132203304676e-12
4400 2.0971052453774278e-12
4500 2.927754889186624e-12
4600 3.271535976205318e-12
4700 3.566937892974967e-12
4800 3.726046537700769e-12
4900 3.77832537081228e-12
5000 3.741069918022942e-12
5100 3.677441153319047e-12
5200 3.656361165737694e-12
5300 3.618839353717755e-12
5400 3.5947535497900353e-12
5500 3.604038070418496e-12
5600 3.629495717603239e-12
5700 3.664186909938357e-12
5800 3.724323642221248e-12
5900 3.804312254671956e-12
6000 3.793232020351304e-12
6100 3.2792184330911295e-12
6200 2.7534509236036705e-12
6300 2.483375752753776e-12
6400 1.986226907115072e-12
6500 1.8045707122147837e-12
6600 1.5034485321484896e-12
6700 1.2739931437287073e-12
6800 1.0884266997676846e-12
6900 8.980690770272812e-13
7000 7.64595161820345e-13
7100 6.455402917239324e-13
7200 5.671144003869454e-13
7300 4.83013173227816e-13
7400 4.0232430390087437e-13
7500 3.2593916490313244e-13
7600 2.7266105494661097e-13
7700 2.2047981943371643e-13
7800 1.7949135956523847e-13
7900 1.3321001390747467e-13
8000 9.497990296126624e-14
8100 6.831846585609015e-14
8200 5.077393620840009e-14
8300 4.0383439285157465e-14
8400 3.159260051954145e-14
8500 2.164545918283491e-14
8600 1.2541476482464466e-14
8700 1.128197631305702e-15
8800 7.966270410500156e-20
8900 6.348174187825203e-20
9000 5.1119797340441873e-20
9100 3.679329524106671e-20
9200 2.340022450628447e-20
9300 6.629338335012396e-21
9400 0.0
9500 0.0
9600 0.0
9700 0.0
9800 0.0
9900 0.0
10000 0.0
10100 0.0
10200 0.0
10300 0.0
10400 0.0
10500 0.0
10600 0.0
10700 0.0
10800 0.0
10900 0.0
11000 0.0
11100 0.0
11200 0.0
11300 0.0
11400 0.0
11500 0.0
11600 0.0
11700 0.0
11800 0.0
11900 0.0
12000 0.0
12100 0.0
12200 0.0
12300 0.0
12400 0.0
12500 0.0
12600 0.0
12700 0.0
12800 0.0
12900 0.0
13000 0.0
13100 0.0
13200 0.0
13300 0.0
13400 0.0
13500 0.0
13600 0.0
13700 0.0
13800 0.0
13900 0.0
14000 0.0
14100 0.0
14200 0.0
14300 0.0
14400 0.0
14500 0.0
14600 0.0
14700 0.0
14800 0.0
14900 0.0
15000 0.0
