
# Total neutron yield = 0.0  n/decay
	 o16 0.0
	 o17 0.0
	 o18 0.0
# Integral of spectrum = 4.209954733155099e-09  n/decay
100 0.0
200 0.0
300 0.0
400 0.0
500 0.0
600 0.0
700 0.0
800 0.0
900 0.0
1000 0.0
1100 0.0
1200 0.0
1300 0.0
1400 0.0
1500 0.0
1600 0.0
1700 0.0
1800 0.0
1900 0.0
2000 0.0
2100 0.0
2200 0.0
2300 0.0
2400 0.0
2500 0.0
2600 0.0
2700 0.0
2800 0.0
2900 0.0
3000 0.0
3100 0.0
3200 0.0
3300 0.0
3400 0.0
3500 0.0
3600 0.0
3700 0.0
3800 0.0
3900 0.0
4000 0.0
4100 8.64572581842864e-15
4200 6.4314229696534e-14
4300 1.6527050962278225e-13
4400 3.1657149160155824e-13
4500 5.50211723327352e-13
4600 8.126554649700828e-13
4700 1.0133765627708426e-12
4800 1.2399179521657481e-12
4900 1.4551626903204165e-12
5000 1.556572805360998e-12
5100 1.6458323821484056e-12
5200 1.7380314659800458e-12
5300 1.8267105266303398e-12
5400 1.8729574334741256e-12
5500 1.891251217719781e-12
5600 1.883935535608936e-12
5700 1.8636847129302622e-12
5800 1.843151116963853e-12
5900 1.820350544131048e-12
6000 1.7790712142550887e-12
6100 1.7280964474191937e-12
6200 1.6718425780589048e-12
6300 1.5889839430538373e-12
6400 1.5074920351018122e-12
6500 1.4002235840994194e-12
6600 1.272966694305606e-12
6700 1.14080899253619e-12
6800 1.0226150752215983e-12
6900 9.052091372678601e-13
7000 7.960201120637727e-13
7100 6.733622154883968e-13
7200 5.591541665779325e-13
7300 4.951426682657731e-13
7400 4.3606808664233587e-13
7500 3.697507209293411e-13
7600 3.0828202939901287e-13
7700 2.4257332236804775e-13
7800 1.8669335753260367e-13
7900 1.3543252930456622e-13
8000 9.704584299074085e-14
8100 7.034184977787974e-14
8200 4.878139714653243e-14
8300 3.500158296340031e-14
8400 2.5054234705543e-14
8500 1.7650390938412542e-14
8600 1.0796407476880235e-14
8700 5.64105243824965e-15
8800 8.415719805248919e-16
8900 0.0
9000 0.0
9100 0.0
9200 0.0
9300 0.0
9400 0.0
9500 0.0
9600 0.0
9700 0.0
9800 0.0
9900 0.0
10000 0.0
10100 0.0
10200 0.0
10300 0.0
10400 0.0
10500 0.0
10600 0.0
10700 0.0
10800 0.0
10900 0.0
11000 0.0
11100 0.0
11200 0.0
11300 0.0
11400 0.0
11500 0.0
11600 0.0
11700 0.0
11800 0.0
11900 0.0
12000 0.0
12100 0.0
12200 0.0
12300 0.0
12400 0.0
12500 0.0
12600 0.0
12700 0.0
12800 0.0
12900 0.0
13000 0.0
13100 0.0
13200 0.0
13300 0.0
13400 0.0
13500 0.0
13600 0.0
13700 0.0
13800 0.0
13900 0.0
14000 0.0
14100 0.0
14200 0.0
14300 0.0
14400 0.0
14500 0.0
14600 0.0
14700 0.0
14800 0.0
14900 0.0
15000 0.0
