
# Total neutron yield = 0.0  n/decay
	 o16 0.0
	 o17 0.0
	 o18 0.0
# Integral of spectrum = 4.742812650081989e-09  n/decay
100 0.0
200 0.0
300 0.0
400 0.0
500 0.0
600 0.0
700 0.0
800 0.0
900 0.0
1000 0.0
1100 0.0
1200 0.0
1300 0.0
1400 0.0
1500 0.0
1600 0.0
1700 0.0
1800 0.0
1900 0.0
2000 0.0
2100 0.0
2200 0.0
2300 0.0
2400 0.0
2500 0.0
2600 0.0
2700 0.0
2800 0.0
2900 0.0
3000 0.0
3100 0.0
3200 0.0
3300 0.0
3400 0.0
3500 0.0
3600 0.0
3700 0.0
3800 0.0
3900 0.0
4000 0.0
4100 1.450094438789542e-15
4200 6.597884390142877e-14
4300 6.882364657623636e-13
4400 1.372804979413404e-12
4500 1.7631871695260195e-12
4600 1.9521429640287282e-12
4700 2.1348382298431114e-12
4800 2.2350058636714463e-12
4900 2.220949743525588e-12
5000 2.161587407960812e-12
5100 2.1280863998718516e-12
5200 2.0978092185573013e-12
5300 2.0454135936104586e-12
5400 2.0159533239951573e-12
5500 2.013249835583524e-12
5600 2.036300057727191e-12
5700 2.07524812923631e-12
5800 2.1346906810763755e-12
5900 2.1994976560620205e-12
6000 2.196760841360774e-12
6100 1.867125048986356e-12
6200 1.5231902399175121e-12
6300 1.3707790747378892e-12
6400 1.1152844531583212e-12
6500 1.0114959529985854e-12
6600 8.228626688284797e-13
6700 6.76662624419399e-13
6800 5.559171917981413e-13
6900 4.308705902888313e-13
7000 3.775376410563885e-13
7100 3.2683559929666983e-13
7200 2.8354401169725894e-13
7300 2.312355382361493e-13
7400 1.8141491505723683e-13
7500 1.580857012524193e-13
7600 1.4218281886260902e-13
7700 1.2657693595117249e-13
7800 1.1466537133619584e-13
7900 1.0086888594910502e-13
8000 8.861950654165274e-14
8100 7.614611705189567e-14
8200 6.737808377372769e-14
8300 5.804597397217863e-14
8400 5.053180034994602e-14
8500 4.215228548144608e-14
8600 3.497408808274214e-14
8700 2.5946276096915507e-14
8800 1.7534394338960963e-14
8900 8.917821657246592e-15
9000 1.5533904917896336e-15
9100 0.0
9200 0.0
9300 0.0
9400 0.0
9500 0.0
9600 0.0
9700 0.0
9800 0.0
9900 0.0
10000 0.0
10100 0.0
10200 0.0
10300 0.0
10400 0.0
10500 0.0
10600 0.0
10700 0.0
10800 0.0
10900 0.0
11000 0.0
11100 0.0
11200 0.0
11300 0.0
11400 0.0
11500 0.0
11600 0.0
11700 0.0
11800 0.0
11900 0.0
12000 0.0
12100 0.0
12200 0.0
12300 0.0
12400 0.0
12500 0.0
12600 0.0
12700 0.0
12800 0.0
12900 0.0
13000 0.0
13100 0.0
13200 0.0
13300 0.0
13400 0.0
13500 0.0
13600 0.0
13700 0.0
13800 0.0
13900 0.0
14000 0.0
14100 0.0
14200 0.0
14300 0.0
14400 0.0
14500 0.0
14600 0.0
14700 0.0
14800 0.0
14900 0.0
15000 0.0
