
# Total neutron yield = 0.0  n/decay
	 na23 0.0
# Integral of spectrum = 5.652414924323767e-13  n/decay
100 0.0
200 0.0
300 0.0
400 0.0
500 0.0
600 0.0
700 0.0
800 0.0
900 0.0
1000 0.0
1100 0.0
1200 0.0
1300 0.0
1400 0.0
1500 0.0
1600 0.0
1700 0.0
1800 0.0
1900 0.0
2000 0.0
2100 0.0
2200 0.0
2300 0.0
2400 0.0
2500 0.0
2600 0.0
2700 0.0
2800 0.0
2900 0.0
3000 0.0
3100 0.0
3200 0.0
3300 0.0
3400 0.0
3500 0.0
3600 0.0
3700 0.0
3800 0.0
3900 0.0
4000 0.0
4100 0.0
4200 0.0
4300 0.0
4400 0.0
4500 0.0
4600 0.0
4700 0.0
4800 0.0
4900 0.0
5000 0.0
5100 0.0
5200 0.0
5300 0.0
5400 0.0
5500 2.3099465464755368e-17
5600 9.058268183498914e-17
5700 1.903379436991512e-16
5800 3.21539434903678e-16
5900 3.0796299616349675e-16
6000 2.960393835889305e-16
6100 2.8561297788492007e-16
6200 2.765459944063704e-16
6300 2.6871649067848324e-16
6400 2.6201590484916453e-16
6500 2.5634734404589305e-16
6600 2.516236784960039e-16
6700 2.477675830249457e-16
6800 2.447084454937981e-16
6900 2.4238247668934726e-16
7000 2.407331108282133e-16
7100 2.3970783563968504e-16
7200 2.392597755288033e-16
7300 2.3934709103748064e-16
7400 2.399306766878273e-16
7500 2.3923481921184435e-16
7600 2.232324703847856e-16
7700 1.9363571375560585e-16
7800 1.4908257702402527e-16
7900 8.296805300156977e-17
8000 0.0
8100 0.0
8200 0.0
8300 0.0
8400 0.0
8500 0.0
8600 0.0
8700 0.0
8800 0.0
8900 0.0
9000 0.0
9100 0.0
9200 0.0
9300 0.0
9400 0.0
9500 0.0
9600 0.0
9700 0.0
9800 0.0
9900 0.0
10000 0.0
10100 0.0
10200 0.0
10300 0.0
10400 0.0
10500 0.0
10600 0.0
10700 0.0
10800 0.0
10900 0.0
11000 0.0
11100 0.0
11200 0.0
11300 0.0
11400 0.0
11500 0.0
11600 0.0
11700 0.0
11800 0.0
11900 0.0
12000 0.0
12100 0.0
12200 0.0
12300 0.0
12400 0.0
12500 0.0
12600 0.0
12700 0.0
12800 0.0
12900 0.0
13000 0.0
13100 0.0
13200 0.0
13300 0.0
13400 0.0
13500 0.0
13600 0.0
13700 0.0
13800 0.0
13900 0.0
14000 0.0
14100 0.0
14200 0.0
14300 0.0
14400 0.0
14500 0.0
14600 0.0
14700 0.0
14800 0.0
14900 0.0
15000 0.0
