
# Total neutron yield = 0.0  n/decay
	 na23 0.0
# Integral of spectrum = 6.311009985657589e-14  n/decay
100 0.0
200 0.0
300 0.0
400 0.0
500 0.0
600 0.0
700 0.0
800 0.0
900 0.0
1000 0.0
1100 0.0
1200 0.0
1300 0.0
1400 0.0
1500 0.0
1600 0.0
1700 0.0
1800 0.0
1900 0.0
2000 0.0
2100 0.0
2200 0.0
2300 0.0
2400 0.0
2500 0.0
2600 0.0
2700 0.0
2800 0.0
2900 0.0
3000 0.0
3100 0.0
3200 0.0
3300 0.0
3400 0.0
3500 0.0
3600 0.0
3700 0.0
3800 0.0
3900 0.0
4000 0.0
4100 0.0
4200 0.0
4300 0.0
4400 0.0
4500 0.0
4600 0.0
4700 0.0
4800 0.0
4900 0.0
5000 0.0
5100 0.0
5200 0.0
5300 0.0
5400 2.67972185043629e-19
5500 1.471217241333878e-17
5600 3.4504592767502904e-17
5700 3.383739206701181e-17
5800 3.320001107924216e-17
5900 3.259131994787494e-17
6000 3.2010100434930456e-17
6100 3.145506431996771e-17
6200 3.0924931950041945e-17
6300 3.041843002174942e-17
6400 2.9934305089441834e-17
6500 2.947129348431483e-17
6600 2.9028164605822665e-17
6700 2.860379590344594e-17
6800 2.819700119108243e-17
6900 2.7806727820500935e-17
7000 2.7431880999513373e-17
7100 2.7071495902386868e-17
7200 2.6724593165414215e-17
7300 2.6390244294852417e-17
7400 2.6067580372387727e-17
7500 2.570013110105384e-17
7600 1.943285350059442e-17
7700 5.318943948243477e-18
7800 0.0
7900 0.0
8000 0.0
8100 0.0
8200 0.0
8300 0.0
8400 0.0
8500 0.0
8600 0.0
8700 0.0
8800 0.0
8900 0.0
9000 0.0
9100 0.0
9200 0.0
9300 0.0
9400 0.0
9500 0.0
9600 0.0
9700 0.0
9800 0.0
9900 0.0
10000 0.0
10100 0.0
10200 0.0
10300 0.0
10400 0.0
10500 0.0
10600 0.0
10700 0.0
10800 0.0
10900 0.0
11000 0.0
11100 0.0
11200 0.0
11300 0.0
11400 0.0
11500 0.0
11600 0.0
11700 0.0
11800 0.0
11900 0.0
12000 0.0
12100 0.0
12200 0.0
12300 0.0
12400 0.0
12500 0.0
12600 0.0
12700 0.0
12800 0.0
12900 0.0
13000 0.0
13100 0.0
13200 0.0
13300 0.0
13400 0.0
13500 0.0
13600 0.0
13700 0.0
13800 0.0
13900 0.0
14000 0.0
14100 0.0
14200 0.0
14300 0.0
14400 0.0
14500 0.0
14600 0.0
14700 0.0
14800 0.0
14900 0.0
15000 0.0
