
# Total neutron yield = 0.0  n/decay
	 na23 0.0
# Integral of spectrum = 8.347223666874757e-07  n/decay
100 0.0
200 0.0
300 0.0
400 0.0
500 0.0
600 0.0
700 0.0
800 0.0
900 0.0
1000 0.0
1100 0.0
1200 0.0
1300 0.0
1400 0.0
1500 0.0
1600 0.0
1700 0.0
1800 0.0
1900 0.0
2000 0.0
2100 0.0
2200 0.0
2300 0.0
2400 0.0
2500 0.0
2600 0.0
2700 0.0
2800 0.0
2900 0.0
3000 0.0
3100 0.0
3200 0.0
3300 0.0
3400 0.0
3500 0.0
3600 0.0
3700 0.0
3800 0.0
3900 0.0
4000 0.0
4100 0.0
4200 0.0
4300 0.0
4400 0.0
4500 0.0
4600 0.0
4700 0.0
4800 0.0
4900 0.0
5000 0.0
5100 0.0
5200 0.0
5300 0.0
5400 0.0
5500 3.1978100191462817e-13
5600 3.3938730431626803e-11
5700 1.0982630701748967e-10
5800 1.9051515278690906e-10
5900 2.5789347100986927e-10
6000 3.103057648113673e-10
6100 3.626340812074898e-10
6200 4.201905252938784e-10
6300 4.4949722504548867e-10
6400 4.3652666117405017e-10
6500 4.2524164765342284e-10
6600 4.154750305443796e-10
6700 4.070747632157825e-10
6800 3.9991203211411003e-10
6900 3.938767582330636e-10
7000 3.8887418611097863e-10
7100 3.8482187789195396e-10
7200 3.8164820022029284e-10
7300 3.7929042276328457e-10
7400 3.764951529551826e-10
7500 3.597330059998849e-10
7600 3.253886479383578e-10
7700 2.7322304987571503e-10
7800 2.338296963183441e-10
7900 1.8533843931369932e-10
8000 1.5758754937588516e-10
8100 1.2315365800955765e-10
8200 9.022710321584966e-11
8300 5.6402957367317714e-11
8400 1.7970120770169207e-11
8500 1.04519803740244e-14
8600 4.0822230474810013e-16
8700 3.2768770149910135e-16
8800 2.469566652162367e-16
8900 1.572636838403593e-16
9000 7.509671093044492e-17
9100 0.0
9200 0.0
9300 0.0
9400 0.0
9500 0.0
9600 0.0
9700 0.0
9800 0.0
9900 0.0
10000 0.0
10100 0.0
10200 0.0
10300 0.0
10400 0.0
10500 0.0
10600 0.0
10700 0.0
10800 0.0
10900 0.0
11000 0.0
11100 0.0
11200 0.0
11300 0.0
11400 0.0
11500 0.0
11600 0.0
11700 0.0
11800 0.0
11900 0.0
12000 0.0
12100 0.0
12200 0.0
12300 0.0
12400 0.0
12500 0.0
12600 0.0
12700 0.0
12800 0.0
12900 0.0
13000 0.0
13100 0.0
13200 0.0
13300 0.0
13400 0.0
13500 0.0
13600 0.0
13700 0.0
13800 0.0
13900 0.0
14000 0.0
14100 0.0
14200 0.0
14300 0.0
14400 0.0
14500 0.0
14600 0.0
14700 0.0
14800 0.0
14900 0.0
15000 0.0
