
# Total neutron yield = 0.0  n/decay
	 na23 0.0
# Integral of spectrum = 1.2424845082901068e-06  n/decay
100 0.0
200 0.0
300 0.0
400 0.0
500 0.0
600 0.0
700 0.0
800 0.0
900 0.0
1000 0.0
1100 0.0
1200 0.0
1300 0.0
1400 0.0
1500 0.0
1600 0.0
1700 0.0
1800 0.0
1900 0.0
2000 0.0
2100 0.0
2200 0.0
2300 0.0
2400 0.0
2500 0.0
2600 0.0
2700 0.0
2800 0.0
2900 0.0
3000 0.0
3100 0.0
3200 0.0
3300 0.0
3400 0.0
3500 0.0
3600 0.0
3700 0.0
3800 0.0
3900 0.0
4000 0.0
4100 0.0
4200 0.0
4300 0.0
4400 0.0
4500 0.0
4600 0.0
4700 0.0
4800 0.0
4900 0.0
5000 0.0
5100 0.0
5200 0.0
5300 0.0
5400 0.0
5500 0.0
5600 2.440351995536398e-11
5700 8.059571597857494e-11
5800 1.7024822140447988e-10
5900 2.76430622469149e-10
6000 4.0028774133156767e-10
6100 4.755226532814053e-10
6200 5.296022645498308e-10
6300 5.668284556369947e-10
6400 6.075075739562413e-10
6500 6.434212192627165e-10
6600 6.41141514592668e-10
6700 6.257541756491388e-10
6800 6.125690401250199e-10
6900 6.013876665335313e-10
7000 5.920350105901647e-10
7100 5.843566051417069e-10
7200 5.782167489449087e-10
7300 5.734957378971038e-10
7400 5.654064664883395e-10
7500 5.420713970133416e-10
7600 5.050515063923736e-10
7700 4.601498135011685e-10
7800 4.0686976232683345e-10
7900 3.3706857039234143e-10
8000 2.6874897885638887e-10
8100 2.1308640975810364e-10
8200 1.651463136522777e-10
8300 1.3299204077361548e-10
8400 1.0499577250891836e-10
8500 7.672018079942154e-11
8600 4.554945991059097e-11
8700 1.717489017744138e-11
8800 8.119943440629279e-15
8900 3.076309855673694e-16
9000 2.476562872753829e-16
9100 1.8143997673111993e-16
9200 1.2147494998725152e-16
9300 5.49037036425526e-17
9400 0.0
9500 0.0
9600 0.0
9700 0.0
9800 0.0
9900 0.0
10000 0.0
10100 0.0
10200 0.0
10300 0.0
10400 0.0
10500 0.0
10600 0.0
10700 0.0
10800 0.0
10900 0.0
11000 0.0
11100 0.0
11200 0.0
11300 0.0
11400 0.0
11500 0.0
11600 0.0
11700 0.0
11800 0.0
11900 0.0
12000 0.0
12100 0.0
12200 0.0
12300 0.0
12400 0.0
12500 0.0
12600 0.0
12700 0.0
12800 0.0
12900 0.0
13000 0.0
13100 0.0
13200 0.0
13300 0.0
13400 0.0
13500 0.0
13600 0.0
13700 0.0
13800 0.0
13900 0.0
14000 0.0
14100 0.0
14200 0.0
14300 0.0
14400 0.0
14500 0.0
14600 0.0
14700 0.0
14800 0.0
14900 0.0
15000 0.0
