
# Total neutron yield = 0.0  n/decay
	 na23 0.0
# Integral of spectrum = 1.3282276325630154e-05  n/decay
100 0.0
200 0.0
300 0.0
400 0.0
500 0.0
600 0.0
700 0.0
800 0.0
900 0.0
1000 0.0
1100 0.0
1200 0.0
1300 0.0
1400 0.0
1500 0.0
1600 0.0
1700 0.0
1800 0.0
1900 0.0
2000 0.0
2100 0.0
2200 0.0
2300 0.0
2400 0.0
2500 0.0
2600 0.0
2700 0.0
2800 0.0
2900 0.0
3000 0.0
3100 0.0
3200 0.0
3300 0.0
3400 0.0
3500 0.0
3600 0.0
3700 0.0
3800 0.0
3900 0.0
4000 0.0
4100 0.0
4200 0.0
4300 0.0
4400 0.0
4500 0.0
4600 0.0
4700 0.0
4800 0.0
4900 0.0
5000 0.0
5100 0.0
5200 0.0
5300 0.0
5400 0.0
5500 0.0
5600 0.0
5700 0.0
5800 1.3556876702369906e-11
5900 5.4115128450737315e-11
6000 1.1623192211869564e-10
6100 2.0888126353802044e-10
6200 3.3420861909704756e-10
6300 4.812447868533895e-10
6400 6.541888895249562e-10
6500 8.600414897884564e-10
6600 1.0968480264725337e-09
6700 1.3962647830196889e-09
6800 1.717400063062671e-09
6900 2.0439611483756063e-09
7000 2.4410864307539147e-09
7100 2.8548397550648095e-09
7200 3.316335903239662e-09
7300 3.7201347054032735e-09
7400 4.069160320699503e-09
7500 4.4131435541750906e-09
7600 4.711290831940908e-09
7700 5.027853112738764e-09
7800 5.3350911939524466e-09
7900 5.519196360810174e-09
8000 5.6440144837558325e-09
8100 5.6391559968032945e-09
8200 5.623702110876795e-09
8300 5.588088670132893e-09
8400 5.510802500387199e-09
8500 5.243168620020423e-09
8600 4.9830111022879056e-09
8700 4.726798380857341e-09
8800 4.44044342868893e-09
8900 4.1589166346865874e-09
9000 3.84356611496798e-09
9100 3.539944523751438e-09
9200 3.2372032884301662e-09
9300 2.9246158677499957e-09
9400 2.672103173365567e-09
9500 2.4176616687074032e-09
9600 2.153010285391173e-09
9700 1.9238021981417447e-09
9800 1.690706361171018e-09
9900 1.4410397635580967e-09
10000 1.21180707934716e-09
10100 9.609688774623441e-10
10200 7.77366425737179e-10
10300 6.182214816211593e-10
10400 4.890853513684156e-10
10500 3.9516584229185606e-10
10600 2.99297968941401e-10
10700 1.9182321209136516e-10
10800 9.207821654188846e-11
10900 1.146818643191741e-13
11000 1.2371684788327555e-15
11100 1.0026638465133023e-15
11200 7.480736806060202e-16
11300 5.202900188576485e-16
11400 2.713239399302313e-16
11500 0.0
11600 0.0
11700 0.0
11800 0.0
11900 0.0
12000 0.0
12100 0.0
12200 0.0
12300 0.0
12400 0.0
12500 0.0
12600 0.0
12700 0.0
12800 0.0
12900 0.0
13000 0.0
13100 0.0
13200 0.0
13300 0.0
13400 0.0
13500 0.0
13600 0.0
13700 0.0
13800 0.0
13900 0.0
14000 0.0
14100 0.0
14200 0.0
14300 0.0
14400 0.0
14500 0.0
14600 0.0
14700 0.0
14800 0.0
14900 0.0
15000 0.0
