
# Total neutron yield = 0.0  n/decay
	 na23 0.0
# Integral of spectrum = 4.183717394719408e-08  n/decay
100 0.0
200 0.0
300 0.0
400 0.0
500 0.0
600 0.0
700 0.0
800 0.0
900 0.0
1000 0.0
1100 0.0
1200 0.0
1300 0.0
1400 0.0
1500 0.0
1600 0.0
1700 0.0
1800 0.0
1900 0.0
2000 0.0
2100 0.0
2200 0.0
2300 0.0
2400 0.0
2500 0.0
2600 0.0
2700 0.0
2800 0.0
2900 0.0
3000 0.0
3100 0.0
3200 0.0
3300 0.0
3400 0.0
3500 0.0
3600 0.0
3700 0.0
3800 0.0
3900 0.0
4000 0.0
4100 0.0
4200 0.0
4300 0.0
4400 0.0
4500 0.0
4600 0.0
4700 0.0
4800 0.0
4900 0.0
5000 0.0
5100 0.0
5200 0.0
5300 0.0
5400 0.0
5500 3.0930316823605103e-12
5600 1.716835700860472e-11
5700 2.434026688742566e-11
5800 2.350884554134138e-11
5900 2.2768400178592708e-11
6000 2.2110779969053845e-11
6100 2.1528638896644337e-11
6200 2.101532763887839e-11
6300 2.056508153855632e-11
6400 2.017261693840281e-11
6500 1.9833181590982312e-11
6600 1.95424805080981e-11
6700 1.929664800903261e-11
6800 1.909215969990928e-11
6900 1.8925883091375687e-11
7000 1.8794910855154356e-11
7100 1.869664138211573e-11
7200 1.8628684441130594e-11
7300 1.8588887824327752e-11
7400 1.857526616940895e-11
7500 1.7449153184263704e-11
7600 1.2179784900109192e-11
7700 2.4957295686964593e-12
7800 2.821116426583186e-16
7900 2.416234811911963e-16
8000 1.925755648158123e-16
8100 1.4416862456291466e-16
8200 9.187170528781425e-17
8300 2.961645686802977e-17
8400 0.0
8500 0.0
8600 0.0
8700 0.0
8800 0.0
8900 0.0
9000 0.0
9100 0.0
9200 0.0
9300 0.0
9400 0.0
9500 0.0
9600 0.0
9700 0.0
9800 0.0
9900 0.0
10000 0.0
10100 0.0
10200 0.0
10300 0.0
10400 0.0
10500 0.0
10600 0.0
10700 0.0
10800 0.0
10900 0.0
11000 0.0
11100 0.0
11200 0.0
11300 0.0
11400 0.0
11500 0.0
11600 0.0
11700 0.0
11800 0.0
11900 0.0
12000 0.0
12100 0.0
12200 0.0
12300 0.0
12400 0.0
12500 0.0
12600 0.0
12700 0.0
12800 0.0
12900 0.0
13000 0.0
13100 0.0
13200 0.0
13300 0.0
13400 0.0
13500 0.0
13600 0.0
13700 0.0
13800 0.0
13900 0.0
14000 0.0
14100 0.0
14200 0.0
14300 0.0
14400 0.0
14500 0.0
14600 0.0
14700 0.0
14800 0.0
14900 0.0
15000 0.0
