
# Total neutron yield = 0.0  n/decay
	 na23 0.0
# Integral of spectrum = 4.78252802923276e-07  n/decay
100 0.0
200 0.0
300 0.0
400 0.0
500 0.0
600 0.0
700 0.0
800 0.0
900 0.0
1000 0.0
1100 0.0
1200 0.0
1300 0.0
1400 0.0
1500 0.0
1600 0.0
1700 0.0
1800 0.0
1900 0.0
2000 0.0
2100 0.0
2200 0.0
2300 0.0
2400 0.0
2500 0.0
2600 0.0
2700 0.0
2800 0.0
2900 0.0
3000 0.0
3100 0.0
3200 0.0
3300 0.0
3400 0.0
3500 0.0
3600 0.0
3700 0.0
3800 0.0
3900 0.0
4000 0.0
4100 0.0
4200 0.0
4300 0.0
4400 0.0
4500 0.0
4600 0.0
4700 0.0
4800 0.0
4900 0.0
5000 0.0
5100 0.0
5200 0.0
5300 0.0
5400 0.0
5500 3.139908037391232e-12
5600 3.16438463590474e-11
5700 7.89837899684274e-11
5800 1.1610812754926104e-10
5900 1.6457426280698435e-10
6000 2.1237134434963682e-10
6100 2.666270442836561e-10
6200 2.579292596591255e-10
6300 2.5023655091437025e-10
6400 2.4350738335114625e-10
6500 2.3764514875177676e-10
6600 2.325670318959323e-10
6700 2.2820181798840735e-10
6800 2.244877218328428e-10
6900 2.213708026138488e-10
7000 2.1880360629072476e-10
7100 2.1674440518140223e-10
7200 2.1515637353671268e-10
7300 2.1400704121782918e-10
7400 2.1302738441151197e-10
7500 2.0132495289403257e-10
7600 1.814714379081153e-10
7700 1.5632649705427463e-10
7800 1.3298328327718745e-10
7900 1.0938110448246261e-10
8000 8.005472562262092e-11
8100 5.184279711860755e-11
8200 2.199095165038664e-11
8300 1.8248926092838354e-14
8400 3.9274944499036675e-16
8500 3.110127096890745e-16
8600 2.3658119899275377e-16
8700 1.6144971537647104e-16
8800 7.750587519627377e-17
8900 0.0
9000 0.0
9100 0.0
9200 0.0
9300 0.0
9400 0.0
9500 0.0
9600 0.0
9700 0.0
9800 0.0
9900 0.0
10000 0.0
10100 0.0
10200 0.0
10300 0.0
10400 0.0
10500 0.0
10600 0.0
10700 0.0
10800 0.0
10900 0.0
11000 0.0
11100 0.0
11200 0.0
11300 0.0
11400 0.0
11500 0.0
11600 0.0
11700 0.0
11800 0.0
11900 0.0
12000 0.0
12100 0.0
12200 0.0
12300 0.0
12400 0.0
12500 0.0
12600 0.0
12700 0.0
12800 0.0
12900 0.0
13000 0.0
13100 0.0
13200 0.0
13300 0.0
13400 0.0
13500 0.0
13600 0.0
13700 0.0
13800 0.0
13900 0.0
14000 0.0
14100 0.0
14200 0.0
14300 0.0
14400 0.0
14500 0.0
14600 0.0
14700 0.0
14800 0.0
14900 0.0
15000 0.0
