
# Total neutron yield = 0.0  n/decay
	 na23 0.0
# Integral of spectrum = 2.2402885113156395e-07  n/decay
100 0.0
200 0.0
300 0.0
400 0.0
500 0.0
600 0.0
700 0.0
800 0.0
900 0.0
1000 0.0
1100 0.0
1200 0.0
1300 0.0
1400 0.0
1500 0.0
1600 0.0
1700 0.0
1800 0.0
1900 0.0
2000 0.0
2100 0.0
2200 0.0
2300 0.0
2400 0.0
2500 0.0
2600 0.0
2700 0.0
2800 0.0
2900 0.0
3000 0.0
3100 0.0
3200 0.0
3300 0.0
3400 0.0
3500 0.0
3600 0.0
3700 0.0
3800 0.0
3900 0.0
4000 0.0
4100 0.0
4200 0.0
4300 0.0
4400 0.0
4500 0.0
4600 0.0
4700 0.0
4800 0.0
4900 0.0
5000 0.0
5100 0.0
5200 0.0
5300 0.0
5400 0.0
5500 1.5692313964195238e-12
5600 1.7439319047029106e-11
5700 3.799102673858928e-11
5800 6.432552830349977e-11
5900 9.556346393614515e-11
6000 1.2675369928993094e-10
6100 1.2239538165412923e-10
6200 1.185140778886116e-10
6300 1.1510685469273858e-10
6400 1.1213156819980945e-10
6500 1.0955056565404455e-10
6600 1.0733028909826064e-10
6700 1.0544070204199985e-10
6800 1.0385484441537403e-10
6900 1.0254851674253633e-10
7000 1.0149997205323752e-10
7100 1.0068954512137655e-10
7200 1.0009957473100875e-10
7300 9.971410192847086e-11
7400 9.951861612692578e-11
7500 9.556652081030425e-11
7600 8.520093573513059e-11
7700 7.46698765967548e-11
7800 6.128439226513998e-11
7900 4.4332792162979906e-11
8000 2.7620313989078e-11
8100 9.575834788391298e-12
8200 2.797251029275965e-16
8300 2.3460160893662074e-16
8400 1.8401909216026438e-16
8500 1.3783104398807252e-16
8600 9.106033911139006e-17
8700 3.867053613270264e-17
8800 0.0
8900 0.0
9000 0.0
9100 0.0
9200 0.0
9300 0.0
9400 0.0
9500 0.0
9600 0.0
9700 0.0
9800 0.0
9900 0.0
10000 0.0
10100 0.0
10200 0.0
10300 0.0
10400 0.0
10500 0.0
10600 0.0
10700 0.0
10800 0.0
10900 0.0
11000 0.0
11100 0.0
11200 0.0
11300 0.0
11400 0.0
11500 0.0
11600 0.0
11700 0.0
11800 0.0
11900 0.0
12000 0.0
12100 0.0
12200 0.0
12300 0.0
12400 0.0
12500 0.0
12600 0.0
12700 0.0
12800 0.0
12900 0.0
13000 0.0
13100 0.0
13200 0.0
13300 0.0
13400 0.0
13500 0.0
13600 0.0
13700 0.0
13800 0.0
13900 0.0
14000 0.0
14100 0.0
14200 0.0
14300 0.0
14400 0.0
14500 0.0
14600 0.0
14700 0.0
14800 0.0
14900 0.0
15000 0.0
