
# Total neutron yield = 0.0  n/decay
	 na23 0.0
# Integral of spectrum = 1.8367785861315321e-06  n/decay
100 0.0
200 0.0
300 0.0
400 0.0
500 0.0
600 0.0
700 0.0
800 0.0
900 0.0
1000 0.0
1100 0.0
1200 0.0
1300 0.0
1400 0.0
1500 0.0
1600 0.0
1700 0.0
1800 0.0
1900 0.0
2000 0.0
2100 0.0
2200 0.0
2300 0.0
2400 0.0
2500 0.0
2600 0.0
2700 0.0
2800 0.0
2900 0.0
3000 0.0
3100 0.0
3200 0.0
3300 0.0
3400 0.0
3500 0.0
3600 0.0
3700 0.0
3800 0.0
3900 0.0
4000 0.0
4100 0.0
4200 0.0
4300 0.0
4400 0.0
4500 0.0
4600 0.0
4700 0.0
4800 0.0
4900 0.0
5000 0.0
5100 0.0
5200 0.0
5300 0.0
5400 0.0
5500 0.0
5600 2.858307735572731e-11
5700 9.80358057040368e-11
5800 2.1177004996429516e-10
5900 3.506149982810079e-10
6000 5.196937949006917e-10
6100 6.361621478806122e-10
6200 7.292847202270746e-10
6300 8.013038766691156e-10
6400 8.805230465268395e-10
6500 9.546706287455093e-10
6600 9.674749706619515e-10
6700 9.544938250517034e-10
6800 9.407492833730332e-10
6900 9.265034950988444e-10
7000 9.119287420341897e-10
7100 8.971335764295235e-10
7200 8.821817478195711e-10
7300 8.671049238531654e-10
7400 8.464739596286438e-10
7500 8.067621370635235e-10
7600 7.489729993419611e-10
7700 6.812467564922445e-10
7800 6.039395451302107e-10
7900 5.071787101330521e-10
8000 4.1235673942014563e-10
8100 3.3257127402665586e-10
8200 2.6192706266037335e-10
8300 2.163366725912164e-10
8400 1.6801015413989935e-10
8500 1.2297818875126442e-10
8600 7.323590460117954e-11
8700 2.756804637662378e-11
8800 1.3339254163903437e-14
8900 5.646990978288189e-16
9000 4.517987795616492e-16
9100 3.2907017310023614e-16
9200 2.1807727945089755e-16
9300 9.748194405330889e-17
9400 0.0
9500 0.0
9600 0.0
9700 0.0
9800 0.0
9900 0.0
10000 0.0
10100 0.0
10200 0.0
10300 0.0
10400 0.0
10500 0.0
10600 0.0
10700 0.0
10800 0.0
10900 0.0
11000 0.0
11100 0.0
11200 0.0
11300 0.0
11400 0.0
11500 0.0
11600 0.0
11700 0.0
11800 0.0
11900 0.0
12000 0.0
12100 0.0
12200 0.0
12300 0.0
12400 0.0
12500 0.0
12600 0.0
12700 0.0
12800 0.0
12900 0.0
13000 0.0
13100 0.0
13200 0.0
13300 0.0
13400 0.0
13500 0.0
13600 0.0
13700 0.0
13800 0.0
13900 0.0
14000 0.0
14100 0.0
14200 0.0
14300 0.0
14400 0.0
14500 0.0
14600 0.0
14700 0.0
14800 0.0
14900 0.0
15000 0.0
