
# Total neutron yield = 0.0  n/decay
	 na23 0.0
# Integral of spectrum = 4.5990789825313395e-06  n/decay
100 0.0
200 0.0
300 0.0
400 0.0
500 0.0
600 0.0
700 0.0
800 0.0
900 0.0
1000 0.0
1100 0.0
1200 0.0
1300 0.0
1400 0.0
1500 0.0
1600 0.0
1700 0.0
1800 0.0
1900 0.0
2000 0.0
2100 0.0
2200 0.0
2300 0.0
2400 0.0
2500 0.0
2600 0.0
2700 0.0
2800 0.0
2900 0.0
3000 0.0
3100 0.0
3200 0.0
3300 0.0
3400 0.0
3500 0.0
3600 0.0
3700 0.0
3800 0.0
3900 0.0
4000 0.0
4100 0.0
4200 0.0
4300 0.0
4400 0.0
4500 0.0
4600 0.0
4700 0.0
4800 0.0
4900 0.0
5000 0.0
5100 0.0
5200 0.0
5300 0.0
5400 0.0
5500 0.0
5600 0.0
5700 4.4667753696985397e-11
5800 1.8151982115654437e-10
5900 3.457043379951158e-10
6000 5.618093756540905e-10
6100 8.18681080712166e-10
6200 1.077809983186814e-09
6300 1.324587721186e-09
6400 1.4935477158435172e-09
6500 1.6679712350329811e-09
6600 1.7948774145905508e-09
6700 1.928026653488662e-09
6800 2.036340012326063e-09
6900 2.14773260133688e-09
7000 2.19195387651669e-09
7100 2.2183754089269246e-09
7200 2.2325333623355838e-09
7300 2.2433407734023276e-09
7400 2.225639534794029e-09
7500 2.141805513717573e-09
7600 2.0247630193460465e-09
7700 1.9088420976201977e-09
7800 1.7812442474933434e-09
7900 1.6247819355724144e-09
8000 1.4681811250671209e-09
8100 1.3094532788450507e-09
8200 1.1458154684424302e-09
8300 1.026770960979182e-09
8400 8.978132137315968e-10
8500 7.873628442466584e-10
8600 6.909724692993634e-10
8700 5.850492853498397e-10
8800 4.94845222345463e-10
8900 3.9760288527200716e-10
9000 3.1255252290070225e-10
9100 2.426748422720591e-10
9200 1.8386277006185595e-10
9300 1.4376939434875215e-10
9400 1.134761070253186e-10
9500 8.639921162167015e-11
9600 5.912909376328784e-11
9700 2.84562273095331e-11
9800 4.6471332847124395e-14
9900 2.942260464969566e-16
10000 2.426070350576662e-16
10100 1.9070996755337887e-16
10200 1.320345971490595e-16
10300 7.838980856040035e-17
10400 1.719970471672272e-17
10500 0.0
10600 0.0
10700 0.0
10800 0.0
10900 0.0
11000 0.0
11100 0.0
11200 0.0
11300 0.0
11400 0.0
11500 0.0
11600 0.0
11700 0.0
11800 0.0
11900 0.0
12000 0.0
12100 0.0
12200 0.0
12300 0.0
12400 0.0
12500 0.0
12600 0.0
12700 0.0
12800 0.0
12900 0.0
13000 0.0
13100 0.0
13200 0.0
13300 0.0
13400 0.0
13500 0.0
13600 0.0
13700 0.0
13800 0.0
13900 0.0
14000 0.0
14100 0.0
14200 0.0
14300 0.0
14400 0.0
14500 0.0
14600 0.0
14700 0.0
14800 0.0
14900 0.0
15000 0.0
