
# Total neutron yield = 0.0  n/decay
	 na23 0.0
# Integral of spectrum = 8.335127022501332e-07  n/decay
100 0.0
200 0.0
300 0.0
400 0.0
500 0.0
600 0.0
700 0.0
800 0.0
900 0.0
1000 0.0
1100 0.0
1200 0.0
1300 0.0
1400 0.0
1500 0.0
1600 0.0
1700 0.0
1800 0.0
1900 0.0
2000 0.0
2100 0.0
2200 0.0
2300 0.0
2400 0.0
2500 0.0
2600 0.0
2700 0.0
2800 0.0
2900 0.0
3000 0.0
3100 0.0
3200 0.0
3300 0.0
3400 0.0
3500 0.0
3600 0.0
3700 0.0
3800 0.0
3900 0.0
4000 0.0
4100 0.0
4200 0.0
4300 0.0
4400 0.0
4500 0.0
4600 0.0
4700 0.0
4800 0.0
4900 0.0
5000 0.0
5100 0.0
5200 0.0
5300 0.0
5400 0.0
5500 0.0
5600 1.7279759324490964e-11
5700 6.097891658559719e-11
5800 1.2048580764054856e-10
5900 2.0120273782632777e-10
6000 2.7987332897345985e-10
6100 3.3358037192973575e-10
6200 3.6238124884599736e-10
6300 3.866905347115128e-10
6400 4.079536546363908e-10
6500 4.313031131673066e-10
6600 4.2403152344726815e-10
6700 4.1160770625236567e-10
6800 4.0161564911581166e-10
6900 3.9377970174617684e-10
7000 3.878779758599539e-10
7100 3.837288332134825e-10
7200 3.811824282107695e-10
7300 3.8011371202412727e-10
7400 3.772177089992937e-10
7500 3.615361458776628e-10
7600 3.40090742387632e-10
7700 3.1097080963646844e-10
7800 2.711986422650478e-10
7900 2.2785154395099524e-10
8000 1.7602651893016313e-10
8100 1.4298742365927684e-10
8200 1.1044760705123302e-10
8300 8.895998666585691e-11
8400 7.037261933267969e-11
8500 4.953000705876106e-11
8600 3.065899271093274e-11
8700 1.1605237885366483e-11
8800 5.455300878951157e-15
8900 1.9671513185956064e-16
9000 1.5441980706362425e-16
9100 1.1646534575058828e-16
9200 7.415253359338973e-17
9300 3.5524941744797127e-17
9400 0.0
9500 0.0
9600 0.0
9700 0.0
9800 0.0
9900 0.0
10000 0.0
10100 0.0
10200 0.0
10300 0.0
10400 0.0
10500 0.0
10600 0.0
10700 0.0
10800 0.0
10900 0.0
11000 0.0
11100 0.0
11200 0.0
11300 0.0
11400 0.0
11500 0.0
11600 0.0
11700 0.0
11800 0.0
11900 0.0
12000 0.0
12100 0.0
12200 0.0
12300 0.0
12400 0.0
12500 0.0
12600 0.0
12700 0.0
12800 0.0
12900 0.0
13000 0.0
13100 0.0
13200 0.0
13300 0.0
13400 0.0
13500 0.0
13600 0.0
13700 0.0
13800 0.0
13900 0.0
14000 0.0
14100 0.0
14200 0.0
14300 0.0
14400 0.0
14500 0.0
14600 0.0
14700 0.0
14800 0.0
14900 0.0
15000 0.0
