
# Total neutron yield = 0.0  n/decay
	 na23 0.0
# Integral of spectrum = 3.6017484843037333e-13  n/decay
100 0.0
200 0.0
300 0.0
400 0.0
500 0.0
600 0.0
700 0.0
800 0.0
900 0.0
1000 0.0
1100 0.0
1200 0.0
1300 0.0
1400 0.0
1500 0.0
1600 0.0
1700 0.0
1800 0.0
1900 0.0
2000 0.0
2100 0.0
2200 0.0
2300 0.0
2400 0.0
2500 0.0
2600 0.0
2700 0.0
2800 0.0
2900 0.0
3000 0.0
3100 0.0
3200 0.0
3300 0.0
3400 0.0
3500 0.0
3600 0.0
3700 0.0
3800 0.0
3900 0.0
4000 0.0
4100 0.0
4200 0.0
4300 0.0
4400 0.0
4500 0.0
4600 0.0
4700 0.0
4800 0.0
4900 0.0
5000 0.0
5100 0.0
5200 0.0
5300 0.0
5400 0.0
5500 1.9669753564283832e-17
5600 8.08572154803495e-17
5700 1.8209405454835036e-16
5800 1.8336064766809563e-16
5900 1.8395087014460356e-16
6000 1.8393819536988077e-16
6100 1.833866520427164e-16
6200 1.8235296210988605e-16
6300 1.808873540761837e-16
6400 1.7903434861378357e-16
6500 1.768335068593411e-16
6600 1.743195669258991e-16
6700 1.7152401933512258e-16
6800 1.6847475404709368e-16
6900 1.6519616600199996e-16
7000 1.6171075579077942e-16
7100 1.5803806026332205e-16
7200 1.541957309495359e-16
7300 1.5019972468916347e-16
7400 1.4606414692020998e-16
7500 1.4139823792987063e-16
7600 1.2530274738187494e-16
7700 9.689587083044802e-17
7800 5.206314276093876e-17
7900 0.0
8000 0.0
8100 0.0
8200 0.0
8300 0.0
8400 0.0
8500 0.0
8600 0.0
8700 0.0
8800 0.0
8900 0.0
9000 0.0
9100 0.0
9200 0.0
9300 0.0
9400 0.0
9500 0.0
9600 0.0
9700 0.0
9800 0.0
9900 0.0
10000 0.0
10100 0.0
10200 0.0
10300 0.0
10400 0.0
10500 0.0
10600 0.0
10700 0.0
10800 0.0
10900 0.0
11000 0.0
11100 0.0
11200 0.0
11300 0.0
11400 0.0
11500 0.0
11600 0.0
11700 0.0
11800 0.0
11900 0.0
12000 0.0
12100 0.0
12200 0.0
12300 0.0
12400 0.0
12500 0.0
12600 0.0
12700 0.0
12800 0.0
12900 0.0
13000 0.0
13100 0.0
13200 0.0
13300 0.0
13400 0.0
13500 0.0
13600 0.0
13700 0.0
13800 0.0
13900 0.0
14000 0.0
14100 0.0
14200 0.0
14300 0.0
14400 0.0
14500 0.0
14600 0.0
14700 0.0
14800 0.0
14900 0.0
15000 0.0
