
# Total neutron yield = 0.0  n/decay
	 na23 0.0
# Integral of spectrum = 1.3163374330133687e-06  n/decay
100 0.0
200 0.0
300 0.0
400 0.0
500 0.0
600 0.0
700 0.0
800 0.0
900 0.0
1000 0.0
1100 0.0
1200 0.0
1300 0.0
1400 0.0
1500 0.0
1600 0.0
1700 0.0
1800 0.0
1900 0.0
2000 0.0
2100 0.0
2200 0.0
2300 0.0
2400 0.0
2500 0.0
2600 0.0
2700 0.0
2800 0.0
2900 0.0
3000 0.0
3100 0.0
3200 0.0
3300 0.0
3400 0.0
3500 0.0
3600 0.0
3700 0.0
3800 0.0
3900 0.0
4000 0.0
4100 0.0
4200 0.0
4300 0.0
4400 0.0
4500 0.0
4600 0.0
4700 0.0
4800 0.0
4900 0.0
5000 0.0
5100 0.0
5200 0.0
5300 0.0
5400 0.0
5500 0.0
5600 1.201584055114034e-11
5700 6.575252872383794e-11
5800 1.4780103325256574e-10
5900 2.40490070626181e-10
6000 3.315318618058132e-10
6100 4.335000613113179e-10
6200 5.224293799922745e-10
6300 5.786311075720956e-10
6400 6.047416653451951e-10
6500 6.255105485721786e-10
6600 6.437881675138789e-10
6700 6.653230796740812e-10
6800 6.543647769550295e-10
6900 6.389436079845218e-10
7000 6.272110547736007e-10
7100 6.187557121556063e-10
7200 6.132522392877193e-10
7300 6.104408608253282e-10
7400 6.039622508958455e-10
7500 5.81384027498487e-10
7600 5.462136271711061e-10
7700 4.960111289086884e-10
7800 4.493876959329201e-10
7900 3.984994989939732e-10
8000 3.3968534988966234e-10
8100 2.83087822088911e-10
8200 2.1812975814123148e-10
8300 1.72523303720181e-10
8400 1.3431930142960942e-10
8500 1.0433267700477481e-10
8600 8.37155806630901e-11
8700 6.071039527518573e-11
8800 3.997586617424228e-11
8900 1.692865029238806e-11
9000 2.311241566743505e-14
9100 2.2487938428596e-16
9200 1.7928021447437967e-16
9300 1.3845703511042031e-16
9400 9.284172963276511e-17
9500 5.1256995263787795e-17
9600 0.0
9700 0.0
9800 0.0
9900 0.0
10000 0.0
10100 0.0
10200 0.0
10300 0.0
10400 0.0
10500 0.0
10600 0.0
10700 0.0
10800 0.0
10900 0.0
11000 0.0
11100 0.0
11200 0.0
11300 0.0
11400 0.0
11500 0.0
11600 0.0
11700 0.0
11800 0.0
11900 0.0
12000 0.0
12100 0.0
12200 0.0
12300 0.0
12400 0.0
12500 0.0
12600 0.0
12700 0.0
12800 0.0
12900 0.0
13000 0.0
13100 0.0
13200 0.0
13300 0.0
13400 0.0
13500 0.0
13600 0.0
13700 0.0
13800 0.0
13900 0.0
14000 0.0
14100 0.0
14200 0.0
14300 0.0
14400 0.0
14500 0.0
14600 0.0
14700 0.0
14800 0.0
14900 0.0
15000 0.0
