
# Total neutron yield = 0.0  n/decay
	 li6 0.0
	 li7 0.0
# Integral of spectrum = 4.6431282565382256e-05  n/decay
100 2.168217486260806e-08
200 2.2134946633354697e-08
300 2.326522571547982e-08
400 2.8078371775371406e-08
500 3.25544106863273e-08
600 3.432677491074875e-08
700 3.431589220382874e-08
800 2.9652292270657543e-08
900 2.6081284349102712e-08
1000 2.326833582936082e-08
1100 2.0836928878822838e-08
1200 1.8712688539301953e-08
1300 1.6887169787532068e-08
1400 1.5358998678299244e-08
1500 1.405662949978439e-08
1600 1.2904543982880775e-08
1700 1.1858435469915073e-08
1800 1.0876237519710763e-08
1900 9.998922290090083e-09
2000 9.176640513055861e-09
2100 8.334246548929465e-09
2200 7.417132060492759e-09
2300 6.579113406725439e-09
2400 5.757605324230801e-09
2500 4.934020431225215e-09
2600 4.156710540068617e-09
2700 3.401308251531261e-09
2800 2.6577424458199196e-09
2900 2.0904658529404038e-09
3000 1.521624944217617e-09
3100 9.649958990273169e-10
3200 4.703445100328837e-10
3300 6.011794321663014e-13
3400 3.627372367000196e-15
3500 2.6555079802195794e-15
3600 1.8583019852930376e-15
3700 1.1742560726971067e-15
3800 5.474774145162115e-16
3900 0.0
4000 0.0
4100 0.0
4200 0.0
4300 0.0
4400 0.0
4500 0.0
4600 0.0
4700 0.0
4800 0.0
4900 0.0
5000 0.0
5100 0.0
5200 0.0
5300 0.0
5400 0.0
5500 0.0
5600 0.0
5700 0.0
5800 0.0
5900 0.0
6000 0.0
6100 0.0
6200 0.0
6300 0.0
6400 0.0
6500 0.0
6600 0.0
6700 0.0
6800 0.0
6900 0.0
7000 0.0
7100 0.0
7200 0.0
7300 0.0
7400 0.0
7500 0.0
7600 0.0
7700 0.0
7800 0.0
7900 0.0
8000 0.0
8100 0.0
8200 0.0
8300 0.0
8400 0.0
8500 0.0
8600 0.0
8700 0.0
8800 0.0
8900 0.0
9000 0.0
9100 0.0
9200 0.0
9300 0.0
9400 0.0
9500 0.0
9600 0.0
9700 0.0
9800 0.0
9900 0.0
10000 0.0
10100 0.0
10200 0.0
10300 0.0
10400 0.0
10500 0.0
10600 0.0
10700 0.0
10800 0.0
10900 0.0
11000 0.0
11100 0.0
11200 0.0
11300 0.0
11400 0.0
11500 0.0
11600 0.0
11700 0.0
11800 0.0
11900 0.0
12000 0.0
12100 0.0
12200 0.0
12300 0.0
12400 0.0
12500 0.0
12600 0.0
12700 0.0
12800 0.0
12900 0.0
13000 0.0
13100 0.0
13200 0.0
13300 0.0
13400 0.0
13500 0.0
13600 0.0
13700 0.0
13800 0.0
13900 0.0
14000 0.0
14100 0.0
14200 0.0
14300 0.0
14400 0.0
14500 0.0
14600 0.0
14700 0.0
14800 0.0
14900 0.0
15000 0.0
