
# Total neutron yield = 0.0  n/decay
	 f19 0.0
# Integral of spectrum = 7.539070137980686e-07  n/decay
100 0.0
200 0.0
300 0.0
400 0.0
500 0.0
600 0.0
700 0.0
800 0.0
900 0.0
1000 0.0
1100 0.0
1200 0.0
1300 0.0
1400 0.0
1500 0.0
1600 0.0
1700 0.0
1800 0.0
1900 0.0
2000 0.0
2100 0.0
2200 0.0
2300 0.0
2400 0.0
2500 0.0
2600 0.0
2700 0.0
2800 0.0
2900 0.0
3000 0.0
3100 0.0
3200 0.0
3300 0.0
3400 0.0
3500 0.0
3600 0.0
3700 0.0
3800 0.0
3900 0.0
4000 0.0
4100 0.0
4200 0.0
4300 0.0
4400 2.821552577106629e-12
4500 1.673625834507081e-11
4600 4.1436804669678417e-11
4700 7.253748523924487e-11
4800 1.1410567314669717e-10
4900 1.6046743788546893e-10
5000 2.0555880539201295e-10
5100 2.561878876679753e-10
5200 3.0414032194428826e-10
5300 3.5543229129600807e-10
5400 3.4501463918887705e-10
5500 3.356363255122071e-10
5600 3.271759197439198e-10
5700 3.195331148390011e-10
5800 3.126250294543823e-10
5900 3.0638207537989244e-10
6000 3.0074400251218683e-10
6100 2.9565906344225917e-10
6200 2.9108184436388414e-10
6300 2.8697220081235766e-10
6400 2.832943780433252e-10
6500 2.80016510822466e-10
6600 2.758886776128583e-10
6700 2.686257827903328e-10
6800 2.5748036650172277e-10
6900 2.4478478252990885e-10
7000 2.2836795549360685e-10
7100 2.109180409245485e-10
7200 1.891544464003103e-10
7300 1.6771184149436357e-10
7400 1.4326615904710488e-10
7500 1.2015300951592895e-10
7600 9.377193558172506e-11
7700 6.887736519614122e-11
7800 4.103721477562938e-11
7900 1.5472937838194624e-11
8000 0.0
8100 0.0
8200 0.0
8300 0.0
8400 0.0
8500 0.0
8600 0.0
8700 0.0
8800 0.0
8900 0.0
9000 0.0
9100 0.0
9200 0.0
9300 0.0
9400 0.0
9500 0.0
9600 0.0
9700 0.0
9800 0.0
9900 0.0
10000 0.0
10100 0.0
10200 0.0
10300 0.0
10400 0.0
10500 0.0
10600 0.0
10700 0.0
10800 0.0
10900 0.0
11000 0.0
11100 0.0
11200 0.0
11300 0.0
11400 0.0
11500 0.0
11600 0.0
11700 0.0
11800 0.0
11900 0.0
12000 0.0
12100 0.0
12200 0.0
12300 0.0
12400 0.0
12500 0.0
12600 0.0
12700 0.0
12800 0.0
12900 0.0
13000 0.0
13100 0.0
13200 0.0
13300 0.0
13400 0.0
13500 0.0
13600 0.0
13700 0.0
13800 0.0
13900 0.0
14000 0.0
14100 0.0
14200 0.0
14300 0.0
14400 0.0
14500 0.0
14600 0.0
14700 0.0
14800 0.0
14900 0.0
15000 0.0
