
# Total neutron yield = 0.0  n/decay
	 f19 0.0
# Integral of spectrum = 5.611885480666135e-09  n/decay
100 0.0
200 0.0
300 0.0
400 0.0
500 0.0
600 0.0
700 0.0
800 0.0
900 0.0
1000 0.0
1100 0.0
1200 0.0
1300 0.0
1400 0.0
1500 0.0
1600 0.0
1700 0.0
1800 0.0
1900 0.0
2000 0.0
2100 0.0
2200 0.0
2300 0.0
2400 0.0
2500 0.0
2600 0.0
2700 0.0
2800 0.0
2900 0.0
3000 0.0
3100 0.0
3200 0.0
3300 0.0
3400 0.0
3500 0.0
3600 0.0
3700 0.0
3800 0.0
3900 0.0
4000 0.0
4100 0.0
4200 0.0
4300 6.332661768051911e-13
4400 3.1411967746330397e-12
4500 2.988037884041446e-12
4600 2.8529214544912486e-12
4700 2.7338722114636655e-12
4800 2.629155321458185e-12
4900 2.537260976521707e-12
5000 2.456917254520752e-12
5100 2.3868877965090358e-12
5200 2.3262146668744654e-12
5300 2.2739382637005885e-12
5400 2.2292674749957866e-12
5500 2.1914781970499553e-12
5600 2.1599386900289963e-12
5700 2.1340608168551802e-12
5800 2.1133323139193514e-12
5900 2.0972999267746416e-12
6000 2.085538439122518e-12
6100 2.0776748519057364e-12
6200 2.0733712989590885e-12
6300 2.0723459667573143e-12
6400 2.0743076021854424e-12
6500 2.0790198823536588e-12
6600 2.08626369244397e-12
6700 1.685286872290377e-12
6800 0.0
6900 0.0
7000 0.0
7100 0.0
7200 0.0
7300 0.0
7400 0.0
7500 0.0
7600 0.0
7700 0.0
7800 0.0
7900 0.0
8000 0.0
8100 0.0
8200 0.0
8300 0.0
8400 0.0
8500 0.0
8600 0.0
8700 0.0
8800 0.0
8900 0.0
9000 0.0
9100 0.0
9200 0.0
9300 0.0
9400 0.0
9500 0.0
9600 0.0
9700 0.0
9800 0.0
9900 0.0
10000 0.0
10100 0.0
10200 0.0
10300 0.0
10400 0.0
10500 0.0
10600 0.0
10700 0.0
10800 0.0
10900 0.0
11000 0.0
11100 0.0
11200 0.0
11300 0.0
11400 0.0
11500 0.0
11600 0.0
11700 0.0
11800 0.0
11900 0.0
12000 0.0
12100 0.0
12200 0.0
12300 0.0
12400 0.0
12500 0.0
12600 0.0
12700 0.0
12800 0.0
12900 0.0
13000 0.0
13100 0.0
13200 0.0
13300 0.0
13400 0.0
13500 0.0
13600 0.0
13700 0.0
13800 0.0
13900 0.0
14000 0.0
14100 0.0
14200 0.0
14300 0.0
14400 0.0
14500 0.0
14600 0.0
14700 0.0
14800 0.0
14900 0.0
15000 0.0
