
# Total neutron yield = 0.0  n/decay
	 f19 0.0
# Integral of spectrum = 4.0417894907422355e-07  n/decay
100 0.0
200 0.0
300 0.0
400 0.0
500 0.0
600 0.0
700 0.0
800 0.0
900 0.0
1000 0.0
1100 0.0
1200 0.0
1300 0.0
1400 0.0
1500 0.0
1600 0.0
1700 0.0
1800 0.0
1900 0.0
2000 0.0
2100 0.0
2200 0.0
2300 0.0
2400 0.0
2500 0.0
2600 0.0
2700 0.0
2800 0.0
2900 0.0
3000 0.0
3100 0.0
3200 0.0
3300 0.0
3400 0.0
3500 0.0
3600 0.0
3700 0.0
3800 0.0
3900 0.0
4000 0.0
4100 0.0
4200 0.0
4300 0.0
4400 8.044557181809564e-13
4500 7.520185676516477e-12
4600 2.1046975855109134e-11
4700 3.755186906862995e-11
4800 5.826751076091398e-11
4900 8.000096735454967e-11
5000 1.0453466572501798e-10
5100 1.2846444310899606e-10
5200 1.4985305635738564e-10
5300 1.724911131761807e-10
5400 1.955685880215673e-10
5500 1.8428222679584656e-10
5600 1.7485014260959071e-10
5700 1.6702040768385293e-10
5800 1.6058538313658144e-10
5900 1.5537381514402922e-10
6000 1.5124236598944197e-10
6100 1.4807187540145478e-10
6200 1.4576276222665648e-10
6300 1.4423147200504296e-10
6400 1.434077133930359e-10
6500 1.4323239722272726e-10
6600 1.4280425717853611e-10
6700 1.4109792470594212e-10
6800 1.373220605547806e-10
6900 1.3238549844420394e-10
7000 1.2555518123285404e-10
7100 1.184943833521329e-10
7200 1.0926083029741972e-10
7300 9.988287468313755e-11
7400 8.818335059484795e-11
7500 7.732800709560486e-11
7600 6.470838792685044e-11
7700 5.29261882225174e-11
7800 3.921248551924041e-11
7900 2.6436669624635973e-11
8000 1.2026998878223077e-11
8100 0.0
8200 0.0
8300 0.0
8400 0.0
8500 0.0
8600 0.0
8700 0.0
8800 0.0
8900 0.0
9000 0.0
9100 0.0
9200 0.0
9300 0.0
9400 0.0
9500 0.0
9600 0.0
9700 0.0
9800 0.0
9900 0.0
10000 0.0
10100 0.0
10200 0.0
10300 0.0
10400 0.0
10500 0.0
10600 0.0
10700 0.0
10800 0.0
10900 0.0
11000 0.0
11100 0.0
11200 0.0
11300 0.0
11400 0.0
11500 0.0
11600 0.0
11700 0.0
11800 0.0
11900 0.0
12000 0.0
12100 0.0
12200 0.0
12300 0.0
12400 0.0
12500 0.0
12600 0.0
12700 0.0
12800 0.0
12900 0.0
13000 0.0
13100 0.0
13200 0.0
13300 0.0
13400 0.0
13500 0.0
13600 0.0
13700 0.0
13800 0.0
13900 0.0
14000 0.0
14100 0.0
14200 0.0
14300 0.0
14400 0.0
14500 0.0
14600 0.0
14700 0.0
14800 0.0
14900 0.0
15000 0.0
