
# Total neutron yield = 0.0  n/decay
	 f19 0.0
# Integral of spectrum = 2.856154178317295e-07  n/decay
100 0.0
200 0.0
300 0.0
400 0.0
500 0.0
600 0.0
700 0.0
800 0.0
900 0.0
1000 0.0
1100 0.0
1200 0.0
1300 0.0
1400 0.0
1500 0.0
1600 0.0
1700 0.0
1800 0.0
1900 0.0
2000 0.0
2100 0.0
2200 0.0
2300 0.0
2400 0.0
2500 0.0
2600 0.0
2700 0.0
2800 0.0
2900 0.0
3000 0.0
3100 0.0
3200 0.0
3300 0.0
3400 0.0
3500 0.0
3600 0.0
3700 0.0
3800 0.0
3900 0.0
4000 0.0
4100 0.0
4200 0.0
4300 0.0
4400 2.64489415410225e-12
4500 1.2858316201768207e-11
4600 2.867095237748404e-11
4700 4.954282552264518e-11
4800 7.402629363285775e-11
4900 9.964563557882171e-11
5000 1.2757711650831896e-10
5100 1.3865301492343936e-10
5200 1.335808227337919e-10
5300 1.2907812678702296e-10
5400 1.2508936974133898e-10
5500 1.2156491867189366e-10
5600 1.1846026247980038e-10
5700 1.1573580336460167e-10
5800 1.1335638983021811e-10
5900 1.1129080582808851e-10
6000 1.0951106512148831e-10
6100 1.0799237983060023e-10
6200 1.0671267255904641e-10
6300 1.0565224971461237e-10
6400 1.0479346614262764e-10
6500 1.0412040022671153e-10
6600 1.0334162856468583e-10
6700 1.0095192583119443e-10
6800 9.614131376269022e-11
6900 8.970925490313517e-11
7000 8.093473461213582e-11
7100 7.17979336194488e-11
7200 6.042091813885504e-11
7300 4.888796755938666e-11
7400 3.48847543862219e-11
7500 2.1679136568646946e-11
7600 6.8468284396143756e-12
7700 0.0
7800 0.0
7900 0.0
8000 0.0
8100 0.0
8200 0.0
8300 0.0
8400 0.0
8500 0.0
8600 0.0
8700 0.0
8800 0.0
8900 0.0
9000 0.0
9100 0.0
9200 0.0
9300 0.0
9400 0.0
9500 0.0
9600 0.0
9700 0.0
9800 0.0
9900 0.0
10000 0.0
10100 0.0
10200 0.0
10300 0.0
10400 0.0
10500 0.0
10600 0.0
10700 0.0
10800 0.0
10900 0.0
11000 0.0
11100 0.0
11200 0.0
11300 0.0
11400 0.0
11500 0.0
11600 0.0
11700 0.0
11800 0.0
11900 0.0
12000 0.0
12100 0.0
12200 0.0
12300 0.0
12400 0.0
12500 0.0
12600 0.0
12700 0.0
12800 0.0
12900 0.0
13000 0.0
13100 0.0
13200 0.0
13300 0.0
13400 0.0
13500 0.0
13600 0.0
13700 0.0
13800 0.0
13900 0.0
14000 0.0
14100 0.0
14200 0.0
14300 0.0
14400 0.0
14500 0.0
14600 0.0
14700 0.0
14800 0.0
14900 0.0
15000 0.0
