
# Total neutron yield = 0.0  n/decay
	 f19 0.0
# Integral of spectrum = 3.25078298917716e-07  n/decay
100 0.0
200 0.0
300 0.0
400 0.0
500 0.0
600 0.0
700 0.0
800 0.0
900 0.0
1000 0.0
1100 0.0
1200 0.0
1300 0.0
1400 0.0
1500 0.0
1600 0.0
1700 0.0
1800 0.0
1900 0.0
2000 0.0
2100 0.0
2200 0.0
2300 0.0
2400 0.0
2500 0.0
2600 0.0
2700 0.0
2800 0.0
2900 0.0
3000 0.0
3100 0.0
3200 0.0
3300 0.0
3400 0.0
3500 0.0
3600 0.0
3700 0.0
3800 0.0
3900 0.0
4000 0.0
4100 0.0
4200 0.0
4300 0.0
4400 2.95127599852222e-12
4500 1.4326343507888784e-11
4600 3.570975437893015e-11
4700 6.275659002414214e-11
4800 8.987545352792628e-11
4900 1.2150816069055778e-10
5000 1.5049899300247387e-10
5100 1.830679748686675e-10
5200 1.6386269247916789e-10
5300 1.4803016089420692e-10
5400 1.3509551691875253e-10
5500 1.246771685574117e-10
5600 1.1646675493869533e-10
5700 1.1020949732639018e-10
5800 1.0569092593559699e-10
5900 1.0273019169687957e-10
6000 1.0117177986064397e-10
6100 1.0088110275823753e-10
6200 1.0174068926522815e-10
6300 1.0364777951430076e-10
6400 1.0651288025056643e-10
6500 1.1025761947305415e-10
6600 1.1441755308511115e-10
6700 1.1702568527477326e-10
6800 1.166309843510145e-10
6900 1.1396393146998674e-10
7000 1.071274651967259e-10
7100 9.935123393791721e-11
7200 8.800958185107056e-11
7300 7.601769466758272e-11
7400 5.985456423670461e-11
7500 4.3311378779946465e-11
7600 2.3403610458086937e-11
7700 0.0
7800 0.0
7900 0.0
8000 0.0
8100 0.0
8200 0.0
8300 0.0
8400 0.0
8500 0.0
8600 0.0
8700 0.0
8800 0.0
8900 0.0
9000 0.0
9100 0.0
9200 0.0
9300 0.0
9400 0.0
9500 0.0
9600 0.0
9700 0.0
9800 0.0
9900 0.0
10000 0.0
10100 0.0
10200 0.0
10300 0.0
10400 0.0
10500 0.0
10600 0.0
10700 0.0
10800 0.0
10900 0.0
11000 0.0
11100 0.0
11200 0.0
11300 0.0
11400 0.0
11500 0.0
11600 0.0
11700 0.0
11800 0.0
11900 0.0
12000 0.0
12100 0.0
12200 0.0
12300 0.0
12400 0.0
12500 0.0
12600 0.0
12700 0.0
12800 0.0
12900 0.0
13000 0.0
13100 0.0
13200 0.0
13300 0.0
13400 0.0
13500 0.0
13600 0.0
13700 0.0
13800 0.0
13900 0.0
14000 0.0
14100 0.0
14200 0.0
14300 0.0
14400 0.0
14500 0.0
14600 0.0
14700 0.0
14800 0.0
14900 0.0
15000 0.0
