
# Total neutron yield = 0.0  n/decay
	 f19 0.0
# Integral of spectrum = 6.15620366362825e-06  n/decay
100 0.0
200 0.0
300 0.0
400 0.0
500 0.0
600 0.0
700 0.0
800 0.0
900 0.0
1000 0.0
1100 0.0
1200 0.0
1300 0.0
1400 0.0
1500 0.0
1600 0.0
1700 0.0
1800 0.0
1900 0.0
2000 0.0
2100 0.0
2200 0.0
2300 0.0
2400 0.0
2500 0.0
2600 0.0
2700 0.0
2800 0.0
2900 0.0
3000 0.0
3100 0.0
3200 0.0
3300 0.0
3400 0.0
3500 0.0
3600 0.0
3700 0.0
3800 0.0
3900 0.0
4000 0.0
4100 0.0
4200 0.0
4300 0.0
4400 0.0
4500 0.0
4600 2.5763230787042934e-11
4700 1.640066706847837e-10
4800 3.8330900470635683e-10
4900 6.7531409883661e-10
5000 9.977875144716637e-10
5100 1.2736586839137712e-09
5200 1.5366710728013562e-09
5300 1.7318937269692468e-09
5400 1.9485580400603624e-09
5500 2.128175278276195e-09
5600 2.2233604446940994e-09
5700 2.2938908337318448e-09
5800 2.3694297626858703e-09
5900 2.389988769842884e-09
6000 2.372504672800507e-09
6100 2.3638490221148217e-09
6200 2.3712560108383733e-09
6300 2.3887391856652283e-09
6400 2.389935415440135e-09
6500 2.3688671969288445e-09
6600 2.3079679449856977e-09
6700 2.2316780491925874e-09
6800 2.1265781510986346e-09
6900 2.0120277116269018e-09
7000 1.8816456406452526e-09
7100 1.7694952502863524e-09
7200 1.6012846279560744e-09
7300 1.4594554750076833e-09
7400 1.3125950880834763e-09
7500 1.1778193121770223e-09
7600 1.0310823213026315e-09
7700 9.113943637866001e-10
7800 7.827327644625446e-10
7900 7.114888224451195e-10
8000 6.31874977968504e-10
8100 5.60023920081297e-10
8200 4.793295085430098e-10
8300 4.256456181189237e-10
8400 3.989009410851878e-10
8500 3.759475028994531e-10
8600 3.504955084762097e-10
8700 3.2874796953240347e-10
8800 3.0439601237268633e-10
8900 2.834953214601183e-10
9000 2.598795197036987e-10
9100 2.396395005151244e-10
9200 2.167353138009142e-10
9300 1.9694965057222436e-10
9400 1.7438428310453045e-10
9500 1.5465304217193188e-10
9600 1.320881026658659e-10
9700 1.120819081235308e-10
9800 8.90552954971598e-11
9900 6.814620352593618e-11
10000 4.395982406707509e-11
10100 2.1402552690147192e-11
10200 0.0
10300 0.0
10400 0.0
10500 0.0
10600 0.0
10700 0.0
10800 0.0
10900 0.0
11000 0.0
11100 0.0
11200 0.0
11300 0.0
11400 0.0
11500 0.0
11600 0.0
11700 0.0
11800 0.0
11900 0.0
12000 0.0
12100 0.0
12200 0.0
12300 0.0
12400 0.0
12500 0.0
12600 0.0
12700 0.0
12800 0.0
12900 0.0
13000 0.0
13100 0.0
13200 0.0
13300 0.0
13400 0.0
13500 0.0
13600 0.0
13700 0.0
13800 0.0
13900 0.0
14000 0.0
14100 0.0
14200 0.0
14300 0.0
14400 0.0
14500 0.0
14600 0.0
14700 0.0
14800 0.0
14900 0.0
15000 0.0
