
# Total neutron yield = 0.0  n/decay
	 f19 0.0
# Integral of spectrum = 8.31849233886099e-06  n/decay
100 0.0
200 0.0
300 0.0
400 0.0
500 0.0
600 0.0
700 0.0
800 0.0
900 0.0
1000 0.0
1100 0.0
1200 0.0
1300 0.0
1400 0.0
1500 0.0
1600 0.0
1700 0.0
1800 0.0
1900 0.0
2000 0.0
2100 0.0
2200 0.0
2300 0.0
2400 0.0
2500 0.0
2600 0.0
2700 0.0
2800 0.0
2900 0.0
3000 0.0
3100 0.0
3200 0.0
3300 0.0
3400 0.0
3500 0.0
3600 0.0
3700 0.0
3800 0.0
3900 0.0
4000 0.0
4100 0.0
4200 0.0
4300 0.0
4400 0.0
4500 0.0
4600 3.101757873130901e-11
4700 1.530884293503261e-10
4800 3.698254665512657e-10
4900 6.461495927261921e-10
5000 9.684676379250645e-10
5100 1.3166434026028505e-09
5200 1.6012332201490176e-09
5300 1.919801816003618e-09
5400 2.2388048640695862e-09
5500 2.523332191693754e-09
5600 2.707842378731378e-09
5700 2.8787871137904045e-09
5800 3.0597241791637943e-09
5900 3.1203859726199207e-09
6000 3.1543156101228645e-09
6100 3.1890134972235052e-09
6200 3.2141518016071804e-09
6300 3.241051153081435e-09
6400 3.2457906859316923e-09
6500 3.205714652680622e-09
6600 3.1459371536316007e-09
6700 3.050359483848247e-09
6800 2.9360019845766534e-09
6900 2.809881311870146e-09
7000 2.668306037223013e-09
7100 2.542329765356216e-09
7200 2.3233570765602426e-09
7300 2.1433214404846896e-09
7400 1.9448917303881913e-09
7500 1.7569875164990278e-09
7600 1.5682080521452155e-09
7700 1.4006297868662457e-09
7800 1.2529222571461599e-09
7900 1.1425569456337421e-09
8000 1.0239536742030531e-09
8100 9.166414591923823e-10
8200 8.016983812430902e-10
8300 7.507451064834423e-10
8400 7.027039737376255e-10
8500 6.592551556197773e-10
8600 6.128289060607863e-10
8700 5.709871775534743e-10
8800 5.258939514348902e-10
8900 4.851317937983249e-10
9000 4.4103358963400886e-10
9100 4.013518433526193e-10
9200 3.5833268712923694e-10
9300 3.195017890432429e-10
9400 2.7725515184312874e-10
9500 2.3925060686576515e-10
9600 1.9817966401291477e-10
9700 1.613073151556461e-10
9800 1.214763085177737e-10
9900 8.57938275599571e-11
10000 4.742099508908669e-11
10100 1.3348244094500477e-11
10200 0.0
10300 0.0
10400 0.0
10500 0.0
10600 0.0
10700 0.0
10800 0.0
10900 0.0
11000 0.0
11100 0.0
11200 0.0
11300 0.0
11400 0.0
11500 0.0
11600 0.0
11700 0.0
11800 0.0
11900 0.0
12000 0.0
12100 0.0
12200 0.0
12300 0.0
12400 0.0
12500 0.0
12600 0.0
12700 0.0
12800 0.0
12900 0.0
13000 0.0
13100 0.0
13200 0.0
13300 0.0
13400 0.0
13500 0.0
13600 0.0
13700 0.0
13800 0.0
13900 0.0
14000 0.0
14100 0.0
14200 0.0
14300 0.0
14400 0.0
14500 0.0
14600 0.0
14700 0.0
14800 0.0
14900 0.0
15000 0.0
