
# Total neutron yield = 0.0  n/decay
	 f19 0.0
# Integral of spectrum = 8.508784477798331e-06  n/decay
100 0.0
200 0.0
300 0.0
400 0.0
500 0.0
600 0.0
700 0.0
800 0.0
900 0.0
1000 0.0
1100 0.0
1200 0.0
1300 0.0
1400 0.0
1500 0.0
1600 0.0
1700 0.0
1800 0.0
1900 0.0
2000 0.0
2100 0.0
2200 0.0
2300 0.0
2400 0.0
2500 0.0
2600 0.0
2700 0.0
2800 0.0
2900 0.0
3000 0.0
3100 0.0
3200 0.0
3300 0.0
3400 0.0
3500 0.0
3600 0.0
3700 0.0
3800 0.0
3900 0.0
4000 0.0
4100 0.0
4200 0.0
4300 0.0
4400 0.0
4500 0.0
4600 3.2870968184050635e-11
4700 1.9967613258976878e-10
4800 4.5985287695821217e-10
4900 8.183006808488955e-10
5000 1.2150023893863568e-09
5100 1.5797274351541357e-09
5200 1.92835379828204e-09
5300 2.2443753608366006e-09
5400 2.5392086366101192e-09
5500 2.8183590165225174e-09
5600 2.9773464347743726e-09
5700 3.1177774748001383e-09
5800 3.257831095736564e-09
5900 3.3039243713018596e-09
6000 3.3085085219483973e-09
6100 3.313112031175399e-09
6200 3.328265615506533e-09
6300 3.3477652916473403e-09
6400 3.3376937155155664e-09
6500 3.296924127355343e-09
6600 3.2081753459386434e-09
6700 3.0992384144422187e-09
6800 2.9543009774574518e-09
6900 2.798817657485537e-09
7000 2.6484823921883746e-09
7100 2.477815256383408e-09
7200 2.2685685740968914e-09
7300 2.0633466101838114e-09
7400 1.877539353090584e-09
7500 1.6710318934828788e-09
7600 1.4889624825178423e-09
7700 1.305200295872003e-09
7800 1.1506954019379208e-09
7900 1.0362497691028573e-09
8000 9.326657373746792e-10
8100 8.195955271739224e-10
8200 7.176786436601018e-10
8300 6.437177634177758e-10
8400 6.061582831585767e-10
8500 5.655050133295538e-10
8600 5.298130890819455e-10
8700 4.910191658491374e-10
8800 4.5690716819925147e-10
8900 4.1949281783225705e-10
9000 3.8650801722056107e-10
9100 3.502962984359394e-10
9200 3.1837655233974527e-10
9300 2.8309391626145004e-10
9400 2.517927095758365e-10
9500 2.1707547939480531e-10
9600 1.8621190435257525e-10
9700 1.5199291136877836e-10
9800 1.2128907247809445e-10
9900 8.715784722372524e-11
10000 5.6251711231829624e-11
10100 2.1944749708112e-11
10200 0.0
10300 0.0
10400 0.0
10500 0.0
10600 0.0
10700 0.0
10800 0.0
10900 0.0
11000 0.0
11100 0.0
11200 0.0
11300 0.0
11400 0.0
11500 0.0
11600 0.0
11700 0.0
11800 0.0
11900 0.0
12000 0.0
12100 0.0
12200 0.0
12300 0.0
12400 0.0
12500 0.0
12600 0.0
12700 0.0
12800 0.0
12900 0.0
13000 0.0
13100 0.0
13200 0.0
13300 0.0
13400 0.0
13500 0.0
13600 0.0
13700 0.0
13800 0.0
13900 0.0
14000 0.0
14100 0.0
14200 0.0
14300 0.0
14400 0.0
14500 0.0
14600 0.0
14700 0.0
14800 0.0
14900 0.0
15000 0.0
