
# Total neutron yield = 0.0  n/decay
	 f19 0.0
# Integral of spectrum = 4.326167447336802e-06  n/decay
100 0.0
200 0.0
300 0.0
400 0.0
500 0.0
600 0.0
700 0.0
800 0.0
900 0.0
1000 0.0
1100 0.0
1200 0.0
1300 0.0
1400 0.0
1500 0.0
1600 0.0
1700 0.0
1800 0.0
1900 0.0
2000 0.0
2100 0.0
2200 0.0
2300 0.0
2400 0.0
2500 0.0
2600 0.0
2700 0.0
2800 0.0
2900 0.0
3000 0.0
3100 0.0
3200 0.0
3300 0.0
3400 0.0
3500 0.0
3600 0.0
3700 0.0
3800 0.0
3900 0.0
4000 0.0
4100 0.0
4200 0.0
4300 0.0
4400 0.0
4500 5.311755563889262e-12
4600 8.412917203901994e-11
4700 2.0320929053317018e-10
4800 3.978116607244211e-10
4900 6.252162658573588e-10
5000 8.385874201229364e-10
5100 9.9714137308405e-10
5200 1.1545270393857144e-09
5300 1.324332824793412e-09
5400 1.3669996686276378e-09
5500 1.4057963699436047e-09
5600 1.449421343085275e-09
5700 1.4873330629251638e-09
5800 1.5299547839269976e-09
5900 1.5715949580822145e-09
6000 1.6073504370960484e-09
6100 1.6471099621475734e-09
6200 1.6808403196906602e-09
6300 1.717724576884077e-09
6400 1.7463684297467869e-09
6500 1.7560930802493786e-09
6600 1.7345832613773687e-09
6700 1.6449595565071136e-09
6800 1.5305794356164152e-09
6900 1.407941987321487e-09
7000 1.2766886231685696e-09
7100 1.1519667636946458e-09
7200 1.0408387160401503e-09
7300 9.513443691800835e-10
7400 8.496337620091988e-10
7500 7.563543631273538e-10
7600 6.538588610062192e-10
7700 6.162168906209713e-10
7800 5.753889010282975e-10
7900 5.387705695995152e-10
8000 4.994458306283958e-10
8100 4.645943270514656e-10
8200 4.2688097390759667e-10
8300 3.9337499637810025e-10
8400 3.5700557596330153e-10
8500 3.2479901352211353e-10
8600 2.896869612292087e-10
8700 2.5843512597317534e-10
8800 2.2419075275482464e-10
8900 1.936979609173043e-10
9000 1.6040786824724028e-10
9100 1.3065094535066063e-10
9200 9.810349479308357e-11
9300 6.888296027838266e-11
9400 3.7034793848704215e-11
9500 8.503037717685343e-12
9600 0.0
9700 0.0
9800 0.0
9900 0.0
10000 0.0
10100 0.0
10200 0.0
10300 0.0
10400 0.0
10500 0.0
10600 0.0
10700 0.0
10800 0.0
10900 0.0
11000 0.0
11100 0.0
11200 0.0
11300 0.0
11400 0.0
11500 0.0
11600 0.0
11700 0.0
11800 0.0
11900 0.0
12000 0.0
12100 0.0
12200 0.0
12300 0.0
12400 0.0
12500 0.0
12600 0.0
12700 0.0
12800 0.0
12900 0.0
13000 0.0
13100 0.0
13200 0.0
13300 0.0
13400 0.0
13500 0.0
13600 0.0
13700 0.0
13800 0.0
13900 0.0
14000 0.0
14100 0.0
14200 0.0
14300 0.0
14400 0.0
14500 0.0
14600 0.0
14700 0.0
14800 0.0
14900 0.0
15000 0.0
