
# Total neutron yield = 0.0  n/decay
	 n14 0.0
	 n15 0.0
# Integral of spectrum = 6.028826464654111e-06  n/decay
100 0.0
200 0.0
300 0.0
400 0.0
500 0.0
600 0.0
700 0.0
800 0.0
900 0.0
1000 0.0
1100 0.0
1200 0.0
1300 0.0
1400 0.0
1500 0.0
1600 0.0
1700 0.0
1800 0.0
1900 0.0
2000 0.0
2100 0.0
2200 0.0
2300 0.0
2400 0.0
2500 0.0
2600 0.0
2700 0.0
2800 0.0
2900 0.0
3000 0.0
3100 0.0
3200 0.0
3300 1.4782387615073234e-13
3400 3.356053737660958e-11
3500 1.7228319161782302e-10
3600 4.706001972497991e-10
3700 8.421125135835776e-10
3800 9.656273460899095e-10
3900 1.093593694076665e-09
4000 1.2376192496304172e-09
4100 1.400355665544997e-09
4200 1.5406777607741522e-09
4300 1.645814431638624e-09
4400 1.745188832021834e-09
4500 1.90523689006073e-09
4600 2.05890582120706e-09
4700 2.2874978743207697e-09
4800 2.425545082484464e-09
4900 2.3273930710803835e-09
5000 2.2425127309355168e-09
5100 2.1691146997857185e-09
5200 2.1056968381731396e-09
5300 2.0510011600659555e-09
5400 2.003958366716919e-09
5500 1.963685537966331e-09
5600 1.9293979660969597e-09
5700 1.8982985514508304e-09
5800 1.8479438575205809e-09
5900 1.7780051255282564e-09
6000 1.7143250303974359e-09
6100 1.5830665015333854e-09
6200 1.3716989563948727e-09
6300 1.2870693929092471e-09
6400 1.2203319063778703e-09
6500 1.173123280431425e-09
6600 1.1107092236027231e-09
6700 1.0457710869780475e-09
6800 9.848974545686101e-10
6900 9.1156055664387e-10
7000 8.38565175769794e-10
7100 7.785052846375511e-10
7200 7.192144784534916e-10
7300 6.663030408041568e-10
7400 6.21357210638137e-10
7500 5.609695852371894e-10
7600 4.808940644535902e-10
7700 4.0619770802594395e-10
7800 3.331639803654261e-10
7900 2.3008576055118106e-10
8000 1.0868015089298755e-10
8100 0.0
8200 0.0
8300 0.0
8400 0.0
8500 0.0
8600 0.0
8700 0.0
8800 0.0
8900 0.0
9000 0.0
9100 0.0
9200 0.0
9300 0.0
9400 0.0
9500 0.0
9600 0.0
9700 0.0
9800 0.0
9900 0.0
10000 0.0
10100 0.0
10200 0.0
10300 0.0
10400 0.0
10500 0.0
10600 0.0
10700 0.0
10800 0.0
10900 0.0
11000 0.0
11100 0.0
11200 0.0
11300 0.0
11400 0.0
11500 0.0
11600 0.0
11700 0.0
11800 0.0
11900 0.0
12000 0.0
12100 0.0
12200 0.0
12300 0.0
12400 0.0
12500 0.0
12600 0.0
12700 0.0
12800 0.0
12900 0.0
13000 0.0
13100 0.0
13200 0.0
13300 0.0
13400 0.0
13500 0.0
13600 0.0
13700 0.0
13800 0.0
13900 0.0
14000 0.0
14100 0.0
14200 0.0
14300 0.0
14400 0.0
14500 0.0
14600 0.0
14700 0.0
14800 0.0
14900 0.0
15000 0.0
