
# Total neutron yield = 0.0  n/decay
	 n14 0.0
	 n15 0.0
# Integral of spectrum = 1.7018601165743103e-06  n/decay
100 0.0
200 0.0
300 0.0
400 0.0
500 0.0
600 0.0
700 0.0
800 0.0
900 0.0
1000 0.0
1100 0.0
1200 0.0
1300 0.0
1400 0.0
1500 0.0
1600 0.0
1700 0.0
1800 0.0
1900 0.0
2000 0.0
2100 0.0
2200 0.0
2300 0.0
2400 0.0
2500 0.0
2600 0.0
2700 0.0
2800 0.0
2900 0.0
3000 0.0
3100 0.0
3200 0.0
3300 3.814886862358219e-12
3400 3.3623942371089505e-11
3500 8.438174408477514e-11
3600 1.4740607118577874e-10
3700 2.239030648262186e-10
3800 2.9463115689994833e-10
3900 3.512612079453207e-10
4000 4.069056266710751e-10
4100 4.905854590052989e-10
4200 5.721093720328683e-10
4300 6.92704933308225e-10
4400 7.527627221271089e-10
4500 7.015694958996988e-10
4600 6.591469015600541e-10
4700 6.239611789553951e-10
4800 5.948003569761325e-10
4900 5.707004471640689e-10
5000 5.508921627657984e-10
5100 5.347616786394295e-10
5200 5.218176359648259e-10
5300 5.116610087174672e-10
5400 5.039743979064144e-10
5500 4.984991097321801e-10
5600 4.950277508931492e-10
5700 4.929986200379746e-10
5800 4.890856252913075e-10
5900 4.80051075678192e-10
6000 4.677270352874648e-10
6100 4.531406000554431e-10
6200 4.35081361349278e-10
6300 4.136385887203871e-10
6400 3.9151952589703303e-10
6500 3.6576884850294357e-10
6600 3.417620991995549e-10
6700 3.2266737650425434e-10
6800 3.0278871143880213e-10
6900 2.825106386424971e-10
7000 2.571383521524729e-10
7100 2.221779707606259e-10
7200 1.8878681737948456e-10
7300 1.5285934910690943e-10
7400 9.95888992458282e-11
7500 3.840735799797116e-11
7600 0.0
7700 0.0
7800 0.0
7900 0.0
8000 0.0
8100 0.0
8200 0.0
8300 0.0
8400 0.0
8500 0.0
8600 0.0
8700 0.0
8800 0.0
8900 0.0
9000 0.0
9100 0.0
9200 0.0
9300 0.0
9400 0.0
9500 0.0
9600 0.0
9700 0.0
9800 0.0
9900 0.0
10000 0.0
10100 0.0
10200 0.0
10300 0.0
10400 0.0
10500 0.0
10600 0.0
10700 0.0
10800 0.0
10900 0.0
11000 0.0
11100 0.0
11200 0.0
11300 0.0
11400 0.0
11500 0.0
11600 0.0
11700 0.0
11800 0.0
11900 0.0
12000 0.0
12100 0.0
12200 0.0
12300 0.0
12400 0.0
12500 0.0
12600 0.0
12700 0.0
12800 0.0
12900 0.0
13000 0.0
13100 0.0
13200 0.0
13300 0.0
13400 0.0
13500 0.0
13600 0.0
13700 0.0
13800 0.0
13900 0.0
14000 0.0
14100 0.0
14200 0.0
14300 0.0
14400 0.0
14500 0.0
14600 0.0
14700 0.0
14800 0.0
14900 0.0
15000 0.0
