
# Total neutron yield = 0.0  n/decay
	 n14 0.0
	 n15 0.0
# Integral of spectrum = 6.029164002546914e-06  n/decay
100 0.0
200 0.0
300 0.0
400 0.0
500 0.0
600 0.0
700 0.0
800 0.0
900 0.0
1000 0.0
1100 0.0
1200 0.0
1300 0.0
1400 0.0
1500 0.0
1600 0.0
1700 0.0
1800 0.0
1900 0.0
2000 0.0
2100 0.0
2200 0.0
2300 0.0
2400 0.0
2500 0.0
2600 0.0
2700 0.0
2800 0.0
2900 0.0
3000 0.0
3100 0.0
3200 2.7606042608468603e-15
3300 2.9931007126525076e-13
3400 3.371548096980954e-11
3500 1.72450271484351e-10
3600 4.707718847747066e-10
3700 8.422731056994238e-10
3800 9.657785699577968e-10
3900 1.0937370199182325e-09
4000 1.237755936016791e-09
4100 1.4004867963582484e-09
4200 1.5408042749544892e-09
4300 1.6459371464762897e-09
4400 1.7453084632808227e-09
4500 1.9053540679937966e-09
4600 2.059021103835251e-09
4700 2.2876117584215207e-09
4800 2.4256580126584635e-09
4900 2.327505447179869e-09
5000 2.242624914916598e-09
5100 2.169227020446725e-09
5200 2.1058095962549837e-09
5300 2.051114631566593e-09
5400 2.0040728064019736e-09
5500 1.9638011820900485e-09
5600 1.929515034691877e-09
5700 1.898417250262267e-09
5800 1.8480050494053216e-09
5900 1.7780344070727736e-09
6000 1.7143499450448674e-09
6100 1.5830848688426625e-09
6200 1.371709422766852e-09
6300 1.2870725366182037e-09
6400 1.2203319063778703e-09
6500 1.173123280431425e-09
6600 1.1107092236027231e-09
6700 1.0457710869780475e-09
6800 9.848974545686101e-10
6900 9.1156055664387e-10
7000 8.38565175769794e-10
7100 7.785052846375511e-10
7200 7.192144784534916e-10
7300 6.663030408041568e-10
7400 6.21357210638137e-10
7500 5.609695852371894e-10
7600 4.808940644535902e-10
7700 4.0619770802594395e-10
7800 3.331639803654261e-10
7900 2.3008576055118106e-10
8000 1.0868015089298755e-10
8100 0.0
8200 0.0
8300 0.0
8400 0.0
8500 0.0
8600 0.0
8700 0.0
8800 0.0
8900 0.0
9000 0.0
9100 0.0
9200 0.0
9300 0.0
9400 0.0
9500 0.0
9600 0.0
9700 0.0
9800 0.0
9900 0.0
10000 0.0
10100 0.0
10200 0.0
10300 0.0
10400 0.0
10500 0.0
10600 0.0
10700 0.0
10800 0.0
10900 0.0
11000 0.0
11100 0.0
11200 0.0
11300 0.0
11400 0.0
11500 0.0
11600 0.0
11700 0.0
11800 0.0
11900 0.0
12000 0.0
12100 0.0
12200 0.0
12300 0.0
12400 0.0
12500 0.0
12600 0.0
12700 0.0
12800 0.0
12900 0.0
13000 0.0
13100 0.0
13200 0.0
13300 0.0
13400 0.0
13500 0.0
13600 0.0
13700 0.0
13800 0.0
13900 0.0
14000 0.0
14100 0.0
14200 0.0
14300 0.0
14400 0.0
14500 0.0
14600 0.0
14700 0.0
14800 0.0
14900 0.0
15000 0.0
