
# Total neutron yield = 0.0  n/decay
	 o16 0.0
	 o17 0.0
	 o18 0.0
# Integral of spectrum = 2.0236731290872107e-09  n/decay
100 0.0
200 0.0
300 0.0
400 0.0
500 0.0
600 0.0
700 0.0
800 0.0
900 0.0
1000 0.0
1100 0.0
1200 0.0
1300 0.0
1400 0.0
1500 0.0
1600 0.0
1700 0.0
1800 0.0
1900 0.0
2000 0.0
2100 0.0
2200 0.0
2300 0.0
2400 0.0
2500 0.0
2600 0.0
2700 0.0
2800 0.0
2900 0.0
3000 0.0
3100 0.0
3200 0.0
3300 0.0
3400 0.0
3500 0.0
3600 0.0
3700 0.0
3800 0.0
3900 0.0
4000 4.8047070860601045e-21
4100 1.9236532844015893e-14
4200 1.314660756829141e-13
4300 2.9549362476804375e-13
4400 4.766201220623284e-13
4500 6.578788370102558e-13
4600 7.815157816443049e-13
4700 9.025690400533258e-13
4800 9.533146419157948e-13
4900 9.496339766471054e-13
5000 9.38761845100465e-13
5100 9.224109692666578e-13
5200 9.062887869414808e-13
5300 8.909225595782812e-13
5400 8.765545301685721e-13
5500 8.640368809661711e-13
5600 8.525215932478774e-13
5700 8.419272565613534e-13
5800 8.326781507000558e-13
5900 8.244892082271063e-13
6000 8.171911589195076e-13
6100 8.083547656045516e-13
6200 7.750404864753467e-13
6300 7.143958141381939e-13
6400 6.438024179148763e-13
6500 5.538842530603242e-13
6600 4.7079826892038e-13
6700 3.7143881446232843e-13
6800 3.035322307573838e-13
6900 2.338044453680719e-13
7000 1.7170446760357505e-13
7100 1.0885113974249271e-13
7200 6.448770758498921e-14
7300 5.1012110015013406e-14
7400 3.975737573426326e-14
7500 3.231232859883463e-14
7600 2.6746634516043354e-14
7700 2.2976674298228925e-14
7800 1.947883131524355e-14
7900 1.6607350391129684e-14
8000 1.449842364147615e-14
8100 1.241102235600625e-14
8200 1.0645055411296532e-14
8300 8.804753544534458e-15
8400 7.243069528142659e-15
8500 5.770363782043546e-15
8600 4.6433737152701364e-15
8700 3.5102472024067984e-15
8800 2.4667449447700256e-15
8900 1.5681147850905037e-15
9000 6.72428349484477e-16
9100 0.0
9200 0.0
9300 0.0
9400 0.0
9500 0.0
9600 0.0
9700 0.0
9800 0.0
9900 0.0
10000 0.0
10100 0.0
10200 0.0
10300 0.0
10400 0.0
10500 0.0
10600 0.0
10700 0.0
10800 0.0
10900 0.0
11000 0.0
11100 0.0
11200 0.0
11300 0.0
11400 0.0
11500 0.0
11600 0.0
11700 0.0
11800 0.0
11900 0.0
12000 0.0
12100 0.0
12200 0.0
12300 0.0
12400 0.0
12500 0.0
12600 0.0
12700 0.0
12800 0.0
12900 0.0
13000 0.0
13100 0.0
13200 0.0
13300 0.0
13400 0.0
13500 0.0
13600 0.0
13700 0.0
13800 0.0
13900 0.0
14000 0.0
14100 0.0
14200 0.0
14300 0.0
14400 0.0
14500 0.0
14600 0.0
14700 0.0
14800 0.0
14900 0.0
15000 0.0
