
# Total neutron yield = 0.0  n/decay
	 o16 0.0
	 o17 0.0
	 o18 0.0
# Integral of spectrum = 7.042605489149953e-09  n/decay
100 0.0
200 0.0
300 0.0
400 0.0
500 0.0
600 0.0
700 0.0
800 0.0
900 0.0
1000 0.0
1100 0.0
1200 0.0
1300 0.0
1400 0.0
1500 0.0
1600 0.0
1700 0.0
1800 0.0
1900 0.0
2000 0.0
2100 0.0
2200 0.0
2300 0.0
2400 0.0
2500 0.0
2600 0.0
2700 0.0
2800 0.0
2900 0.0
3000 0.0
3100 0.0
3200 0.0
3300 0.0
3400 0.0
3500 0.0
3600 0.0
3700 0.0
3800 0.0
3900 0.0
4000 0.0
4100 1.0960117168709704e-14
4200 8.990331155530323e-14
4300 2.587970638226753e-13
4400 5.115981358987591e-13
4500 9.011727615220675e-13
4600 1.2853410961131858e-12
4700 1.6934042330870983e-12
4800 2.0466777298484023e-12
4900 2.3612503000584334e-12
5000 2.6791630126386176e-12
5100 2.9325760592130255e-12
5200 3.073714416077569e-12
5300 3.2104038140122593e-12
5400 3.2630984351856726e-12
5500 3.219558184302722e-12
5600 3.1666920869142015e-12
5700 3.1117727523620225e-12
5800 3.0622225417870583e-12
5900 3.0152751629463945e-12
6000 2.9544450882145514e-12
6100 2.8821840165369795e-12
6200 2.7952155260561603e-12
6300 2.662656968194593e-12
6400 2.53128889378502e-12
6500 2.356573630671369e-12
6600 2.15135563496412e-12
6700 1.9595301434529708e-12
6800 1.7461054795080147e-12
6900 1.5159383562641376e-12
7000 1.353071464999337e-12
7100 1.1706720192335693e-12
7200 1.0012005830787216e-12
7300 8.204550457899586e-13
7400 6.643106628721299e-13
7500 5.067542196800957e-13
7600 4.0570917540849795e-13
7700 2.9753630080824396e-13
7800 2.053073265887431e-13
7900 1.204541758236647e-13
8000 8.010342741309282e-14
8100 6.289445419805573e-14
8200 4.9009644240415034e-14
8300 4.0139598055449396e-14
8400 3.37545063039943e-14
8500 2.9029272965165646e-14
8600 2.4687905048096043e-14
8700 2.1468874012476987e-14
8800 1.8514808348840493e-14
8900 1.6047171239370246e-14
9000 1.3492105345316816e-14
9100 1.1061366085969176e-14
9200 9.0783113317202e-15
9300 7.232995194833205e-15
9400 5.761356360345721e-15
9500 4.262382827210513e-15
9600 2.9804153055047066e-15
9700 1.6293333735281806e-15
9800 5.61037405097602e-16
9900 0.0
10000 0.0
10100 0.0
10200 0.0
10300 0.0
10400 0.0
10500 0.0
10600 0.0
10700 0.0
10800 0.0
10900 0.0
11000 0.0
11100 0.0
11200 0.0
11300 0.0
11400 0.0
11500 0.0
11600 0.0
11700 0.0
11800 0.0
11900 0.0
12000 0.0
12100 0.0
12200 0.0
12300 0.0
12400 0.0
12500 0.0
12600 0.0
12700 0.0
12800 0.0
12900 0.0
13000 0.0
13100 0.0
13200 0.0
13300 0.0
13400 0.0
13500 0.0
13600 0.0
13700 0.0
13800 0.0
13900 0.0
14000 0.0
14100 0.0
14200 0.0
14300 0.0
14400 0.0
14500 0.0
14600 0.0
14700 0.0
14800 0.0
14900 0.0
15000 0.0
