
# Total neutron yield = 0.0  n/decay
	 f19 0.0
# Integral of spectrum = 1.3762072215711583e-13  n/decay
100 0.0
200 0.0
300 0.0
400 0.0
500 0.0
600 0.0
700 0.0
800 0.0
900 0.0
1000 0.0
1100 0.0
1200 0.0
1300 0.0
1400 0.0
1500 0.0
1600 0.0
1700 0.0
1800 0.0
1900 0.0
2000 0.0
2100 0.0
2200 0.0
2300 0.0
2400 0.0
2500 0.0
2600 0.0
2700 0.0
2800 0.0
2900 0.0
3000 0.0
3100 0.0
3200 0.0
3300 0.0
3400 0.0
3500 0.0
3600 0.0
3700 0.0
3800 0.0
3900 0.0
4000 0.0
4100 0.0
4200 0.0
4300 0.0
4400 6.843211116982878e-18
4500 3.167780039649344e-17
4600 8.116527900134501e-17
4700 7.613336256928625e-17
4800 7.178188926812412e-17
4900 6.803220827542275e-17
5000 6.481627464129047e-17
5100 6.2075291288996e-17
5200 5.975754222360128e-17
5300 5.781893694942083e-17
5400 5.621991356191039e-17
5500 5.492641403901471e-17
5600 5.390800384599774e-17
5700 5.313852102812427e-17
5800 5.259442159984752e-17
5900 5.225509623885709e-17
6000 5.2102086474246845e-17
6100 5.211913985082715e-17
6200 5.229174857865807e-17
6300 5.2607176087790085e-17
6400 5.30536426409816e-17
6500 5.362123130556253e-17
6600 5.360309038194255e-17
6700 4.8150888876777014e-17
6800 3.727205550646981e-17
6900 1.8241995823188206e-17
7000 0.0
7100 0.0
7200 0.0
7300 0.0
7400 0.0
7500 0.0
7600 0.0
7700 0.0
7800 0.0
7900 0.0
8000 0.0
8100 0.0
8200 0.0
8300 0.0
8400 0.0
8500 0.0
8600 0.0
8700 0.0
8800 0.0
8900 0.0
9000 0.0
9100 0.0
9200 0.0
9300 0.0
9400 0.0
9500 0.0
9600 0.0
9700 0.0
9800 0.0
9900 0.0
10000 0.0
10100 0.0
10200 0.0
10300 0.0
10400 0.0
10500 0.0
10600 0.0
10700 0.0
10800 0.0
10900 0.0
11000 0.0
11100 0.0
11200 0.0
11300 0.0
11400 0.0
11500 0.0
11600 0.0
11700 0.0
11800 0.0
11900 0.0
12000 0.0
12100 0.0
12200 0.0
12300 0.0
12400 0.0
12500 0.0
12600 0.0
12700 0.0
12800 0.0
12900 0.0
13000 0.0
13100 0.0
13200 0.0
13300 0.0
13400 0.0
13500 0.0
13600 0.0
13700 0.0
13800 0.0
13900 0.0
14000 0.0
14100 0.0
14200 0.0
14300 0.0
14400 0.0
14500 0.0
14600 0.0
14700 0.0
14800 0.0
14900 0.0
15000 0.0
