
# Total neutron yield = 0.0  n/decay
	 f19 0.0
# Integral of spectrum = 1.7591944250025164e-06  n/decay
100 0.0
200 0.0
300 0.0
400 0.0
500 0.0
600 0.0
700 0.0
800 0.0
900 0.0
1000 0.0
1100 0.0
1200 0.0
1300 0.0
1400 0.0
1500 0.0
1600 0.0
1700 0.0
1800 0.0
1900 0.0
2000 0.0
2100 0.0
2200 0.0
2300 0.0
2400 0.0
2500 0.0
2600 0.0
2700 0.0
2800 0.0
2900 0.0
3000 0.0
3100 0.0
3200 0.0
3300 0.0
3400 0.0
3500 0.0
3600 0.0
3700 0.0
3800 0.0
3900 0.0
4000 0.0
4100 0.0
4200 0.0
4300 0.0
4400 0.0
4500 1.777184111477724e-11
4600 8.67601087199165e-11
4700 1.9192549564801745e-10
4800 3.4372848281139873e-10
4900 4.810549611297501e-10
5000 6.025857378806937e-10
5100 6.835739049839937e-10
5200 7.638179270130262e-10
5300 8.521339339522028e-10
5400 8.836996385060393e-10
5500 8.692007684324339e-10
5600 8.542987176753348e-10
5700 8.392380423811106e-10
5800 8.241890699375411e-10
5900 8.0926480878504e-10
6000 7.94533743482458e-10
6100 7.800302188699368e-10
6200 7.657613846061253e-10
6300 7.517142064545417e-10
6400 7.378600414040986e-10
6500 7.137398712138753e-10
6600 6.758978474141277e-10
6700 6.209518679890177e-10
6800 5.594757902272074e-10
6900 4.809479003681251e-10
7000 4.0070126388794627e-10
7100 3.265754914961217e-10
7200 2.632931034236198e-10
7300 2.1221127468692768e-10
7400 1.705669391477817e-10
7500 1.2337587700378203e-10
7600 7.974762996460902e-11
7700 3.1276958728610187e-11
7800 3.7725846390675093e-14
7900 5.680355248264219e-16
8000 4.465336169847925e-16
8100 3.363839959696971e-16
8200 2.1627454512050085e-16
8300 1.0761090736494543e-16
8400 0.0
8500 0.0
8600 0.0
8700 0.0
8800 0.0
8900 0.0
9000 0.0
9100 0.0
9200 0.0
9300 0.0
9400 0.0
9500 0.0
9600 0.0
9700 0.0
9800 0.0
9900 0.0
10000 0.0
10100 0.0
10200 0.0
10300 0.0
10400 0.0
10500 0.0
10600 0.0
10700 0.0
10800 0.0
10900 0.0
11000 0.0
11100 0.0
11200 0.0
11300 0.0
11400 0.0
11500 0.0
11600 0.0
11700 0.0
11800 0.0
11900 0.0
12000 0.0
12100 0.0
12200 0.0
12300 0.0
12400 0.0
12500 0.0
12600 0.0
12700 0.0
12800 0.0
12900 0.0
13000 0.0
13100 0.0
13200 0.0
13300 0.0
13400 0.0
13500 0.0
13600 0.0
13700 0.0
13800 0.0
13900 0.0
14000 0.0
14100 0.0
14200 0.0
14300 0.0
14400 0.0
14500 0.0
14600 0.0
14700 0.0
14800 0.0
14900 0.0
15000 0.0
