
# Total neutron yield = 0.0  n/decay
	 f19 0.0
# Integral of spectrum = 6.494499297544851e-06  n/decay
100 0.0
200 0.0
300 0.0
400 0.0
500 0.0
600 0.0
700 0.0
800 0.0
900 0.0
1000 0.0
1100 0.0
1200 0.0
1300 0.0
1400 0.0
1500 0.0
1600 0.0
1700 0.0
1800 0.0
1900 0.0
2000 0.0
2100 0.0
2200 0.0
2300 0.0
2400 0.0
2500 0.0
2600 0.0
2700 0.0
2800 0.0
2900 0.0
3000 0.0
3100 0.0
3200 0.0
3300 0.0
3400 0.0
3500 0.0
3600 0.0
3700 0.0
3800 0.0
3900 0.0
4000 0.0
4100 0.0
4200 0.0
4300 0.0
4400 0.0
4500 0.0
4600 3.033988194908655e-11
4700 1.9046752920895482e-10
4800 4.155114587024496e-10
4900 7.055900093352222e-10
5000 1.0520411801568817e-09
5100 1.4064787050591612e-09
5200 1.7457978212511184e-09
5300 1.9822610641419724e-09
5400 2.221317483525505e-09
5500 2.422062122218716e-09
5600 2.5872249288785e-09
5700 2.759883994368062e-09
5800 2.8692424268963573e-09
5900 2.908873899555785e-09
6000 2.902940430386475e-09
6100 2.9048564870841545e-09
6200 2.9266241865574664e-09
6300 2.900738647256849e-09
6400 2.8234133739936013e-09
6500 2.7251320482381317e-09
6600 2.595906740071622e-09
6700 2.4742543917852767e-09
6800 2.327912642081479e-09
6900 2.181756570481146e-09
7000 2.000804046697135e-09
7100 1.823166364638143e-09
7200 1.6271021645429787e-09
7300 1.4695683690900022e-09
7400 1.3167560587677403e-09
7500 1.177011742889583e-09
7600 1.0358693669148927e-09
7700 9.153787616464959e-10
7800 7.792937350605201e-10
7900 6.617472386238503e-10
8000 5.295565282862925e-10
8100 4.1269727822130274e-10
8200 3.2425287407650623e-10
8300 2.4671591479933896e-10
8400 2.0179395687454556e-10
8500 1.6069010117095343e-10
8600 1.1342604547258971e-10
8700 6.954825643440943e-11
8800 1.898428076779062e-11
8900 5.44336887510058e-16
9000 4.495083115166481e-16
9100 3.6390831074179247e-16
9200 2.6549413848866463e-16
9300 1.7456651906008326e-16
9400 6.947530096668448e-17
9500 0.0
9600 0.0
9700 0.0
9800 0.0
9900 0.0
10000 0.0
10100 0.0
10200 0.0
10300 0.0
10400 0.0
10500 0.0
10600 0.0
10700 0.0
10800 0.0
10900 0.0
11000 0.0
11100 0.0
11200 0.0
11300 0.0
11400 0.0
11500 0.0
11600 0.0
11700 0.0
11800 0.0
11900 0.0
12000 0.0
12100 0.0
12200 0.0
12300 0.0
12400 0.0
12500 0.0
12600 0.0
12700 0.0
12800 0.0
12900 0.0
13000 0.0
13100 0.0
13200 0.0
13300 0.0
13400 0.0
13500 0.0
13600 0.0
13700 0.0
13800 0.0
13900 0.0
14000 0.0
14100 0.0
14200 0.0
14300 0.0
14400 0.0
14500 0.0
14600 0.0
14700 0.0
14800 0.0
14900 0.0
15000 0.0
