
# Total neutron yield = 0.0  n/decay
	 f19 0.0
# Integral of spectrum = 8.416484852583508e-06  n/decay
100 0.0
200 0.0
300 0.0
400 0.0
500 0.0
600 0.0
700 0.0
800 0.0
900 0.0
1000 0.0
1100 0.0
1200 0.0
1300 0.0
1400 0.0
1500 0.0
1600 0.0
1700 0.0
1800 0.0
1900 0.0
2000 0.0
2100 0.0
2200 0.0
2300 0.0
2400 0.0
2500 0.0
2600 0.0
2700 0.0
2800 0.0
2900 0.0
3000 0.0
3100 0.0
3200 0.0
3300 0.0
3400 0.0
3500 0.0
3600 0.0
3700 0.0
3800 0.0
3900 0.0
4000 0.0
4100 0.0
4200 0.0
4300 0.0
4400 0.0
4500 0.0
4600 3.643578233972117e-11
4700 1.7271317452430686e-10
4800 3.8933392088748593e-10
4900 6.661489998139671e-10
5000 1.0403548997472706e-09
5100 1.4620458515046695e-09
5200 1.8254194407714606e-09
5300 2.2040554644228656e-09
5400 2.5549892085094446e-09
5500 2.8776424847599425e-09
5600 3.2085240989222884e-09
5700 3.5063604985814076e-09
5800 3.71573698468533e-09
5900 3.840109708740299e-09
6000 3.910467830916681e-09
6100 3.983189459632417e-09
6200 4.0418698019758075e-09
6300 3.976114476658626e-09
6400 3.8770206336672085e-09
6500 3.735682358083227e-09
6600 3.577221342099524e-09
6700 3.3897122769693187e-09
6800 3.1926060706585337e-09
6900 2.9780112791918016e-09
7000 2.7286990774313626e-09
7100 2.487541431245836e-09
7200 2.2330900891944456e-09
7300 2.02869377104214e-09
7400 1.8080913590118453e-09
7500 1.607231734893541e-09
7600 1.4081547933591314e-09
7700 1.2261463628276111e-09
7800 1.0337987402201732e-09
7900 8.610033681147473e-10
8000 6.764218474477465e-10
8100 5.349339033253945e-10
8200 4.1280729167208364e-10
8300 3.25271516098078e-10
8400 2.553902763119485e-10
8500 1.9180070173055285e-10
8600 1.229367056631484e-10
8700 6.09835966899324e-11
8800 8.356373206303932e-14
8900 7.722904062977732e-16
9000 6.134641014581106e-16
9100 4.70274827886013e-16
9200 3.153609499923902e-16
9300 1.7636938588692458e-16
9400 0.0
9500 0.0
9600 0.0
9700 0.0
9800 0.0
9900 0.0
10000 0.0
10100 0.0
10200 0.0
10300 0.0
10400 0.0
10500 0.0
10600 0.0
10700 0.0
10800 0.0
10900 0.0
11000 0.0
11100 0.0
11200 0.0
11300 0.0
11400 0.0
11500 0.0
11600 0.0
11700 0.0
11800 0.0
11900 0.0
12000 0.0
12100 0.0
12200 0.0
12300 0.0
12400 0.0
12500 0.0
12600 0.0
12700 0.0
12800 0.0
12900 0.0
13000 0.0
13100 0.0
13200 0.0
13300 0.0
13400 0.0
13500 0.0
13600 0.0
13700 0.0
13800 0.0
13900 0.0
14000 0.0
14100 0.0
14200 0.0
14300 0.0
14400 0.0
14500 0.0
14600 0.0
14700 0.0
14800 0.0
14900 0.0
15000 0.0
