
# Total neutron yield = 0.0  n/decay
	 f19 0.0
# Integral of spectrum = 8.87464166879175e-06  n/decay
100 0.0
200 0.0
300 0.0
400 0.0
500 0.0
600 0.0
700 0.0
800 0.0
900 0.0
1000 0.0
1100 0.0
1200 0.0
1300 0.0
1400 0.0
1500 0.0
1600 0.0
1700 0.0
1800 0.0
1900 0.0
2000 0.0
2100 0.0
2200 0.0
2300 0.0
2400 0.0
2500 0.0
2600 0.0
2700 0.0
2800 0.0
2900 0.0
3000 0.0
3100 0.0
3200 0.0
3300 0.0
3400 0.0
3500 0.0
3600 0.0
3700 0.0
3800 0.0
3900 0.0
4000 0.0
4100 0.0
4200 0.0
4300 0.0
4400 0.0
4500 0.0
4600 3.867629503713978e-11
4700 2.3047545815763885e-10
4800 4.942210564762765e-10
4900 8.512659905157519e-10
5000 1.2894136971818115e-09
5100 1.7467541691378577e-09
5200 2.1901335753905567e-09
5300 2.568872100950588e-09
5400 2.8919528903683795e-09
5500 3.2082961849261245e-09
5600 3.478745031175074e-09
5700 3.758041466234249e-09
5800 3.9402045633827185e-09
5900 4.027479799977052e-09
6000 4.058871388744536e-09
6100 4.087154346295023e-09
6200 4.129124107546289e-09
6300 4.082339270894186e-09
6400 3.971689406873512e-09
6500 3.8270036055829766e-09
6600 3.6448187946369057e-09
6700 3.4645855066618307e-09
6800 3.2502999531162187e-09
6900 3.033760333653061e-09
7000 2.7987193708714703e-09
7100 2.524549739238261e-09
7200 2.2790284031155833e-09
7300 2.039489387108898e-09
7400 1.8402232945778574e-09
7500 1.6192830890687395e-09
7600 1.4377804089905612e-09
7700 1.2435639235630719e-09
7800 1.0697027202923594e-09
7900 8.836633824074491e-10
8000 7.174747834449985e-10
8100 5.448185935124466e-10
8200 4.3778431667148573e-10
8300 3.286540835111434e-10
8400 2.700690677203002e-10
8500 2.0471315931757734e-10
8600 1.4522995259388838e-10
8700 7.905449781823669e-11
8800 1.8433059909441252e-11
8900 7.403284219144476e-16
9000 6.142204816522087e-16
9100 4.743231933379015e-16
9200 3.4763604285797807e-16
9300 2.0672186281354385e-16
9400 7.803797044644507e-17
9500 0.0
9600 0.0
9700 0.0
9800 0.0
9900 0.0
10000 0.0
10100 0.0
10200 0.0
10300 0.0
10400 0.0
10500 0.0
10600 0.0
10700 0.0
10800 0.0
10900 0.0
11000 0.0
11100 0.0
11200 0.0
11300 0.0
11400 0.0
11500 0.0
11600 0.0
11700 0.0
11800 0.0
11900 0.0
12000 0.0
12100 0.0
12200 0.0
12300 0.0
12400 0.0
12500 0.0
12600 0.0
12700 0.0
12800 0.0
12900 0.0
13000 0.0
13100 0.0
13200 0.0
13300 0.0
13400 0.0
13500 0.0
13600 0.0
13700 0.0
13800 0.0
13900 0.0
14000 0.0
14100 0.0
14200 0.0
14300 0.0
14400 0.0
14500 0.0
14600 0.0
14700 0.0
14800 0.0
14900 0.0
15000 0.0
