
# Total neutron yield = 0.0  n/decay
	 f19 0.0
# Integral of spectrum = 4.6884975580824395e-07  n/decay
100 0.0
200 0.0
300 0.0
400 0.0
500 0.0
600 0.0
700 0.0
800 0.0
900 0.0
1000 0.0
1100 0.0
1200 0.0
1300 0.0
1400 0.0
1500 0.0
1600 0.0
1700 0.0
1800 0.0
1900 0.0
2000 0.0
2100 0.0
2200 0.0
2300 0.0
2400 0.0
2500 0.0
2600 0.0
2700 0.0
2800 0.0
2900 0.0
3000 0.0
3100 0.0
3200 0.0
3300 0.0
3400 0.0
3500 0.0
3600 0.0
3700 0.0
3800 0.0
3900 0.0
4000 0.0
4100 0.0
4200 0.0
4300 0.0
4400 8.596331002852992e-13
4500 2.8723028298510298e-11
4600 7.014212349669348e-11
4700 1.2675061014813769e-10
4800 2.0202631613034962e-10
4900 2.5826768479904583e-10
5000 2.4697605327237856e-10
5100 2.370703807505296e-10
5200 2.2842617625204221e-10
5300 2.2091797925488935e-10
5400 2.1443472378525188e-10
5500 2.0887867533152065e-10
5600 2.0416227114386806e-10
5700 2.0020790652222902e-10
5800 1.9694533197005986e-10
5900 1.943120799919348e-10
6000 1.922512834813571e-10
6100 1.9071216867044567e-10
6200 1.896488587244703e-10
6300 1.8901967165158638e-10
6400 1.887872146588111e-10
6500 1.8833468629365415e-10
6600 1.7743238000539906e-10
6700 1.6066219491168487e-10
6800 1.391986509354316e-10
6900 1.1305537054431366e-10
7000 7.844218686212071e-11
7100 4.178680899126922e-11
7200 6.304976953583257e-14
7300 6.558205177829691e-16
7400 5.3281784240390495e-16
7500 4.1790032418331014e-16
7600 2.8713067793978825e-16
7700 1.646652706411543e-16
7800 0.0
7900 0.0
8000 0.0
8100 0.0
8200 0.0
8300 0.0
8400 0.0
8500 0.0
8600 0.0
8700 0.0
8800 0.0
8900 0.0
9000 0.0
9100 0.0
9200 0.0
9300 0.0
9400 0.0
9500 0.0
9600 0.0
9700 0.0
9800 0.0
9900 0.0
10000 0.0
10100 0.0
10200 0.0
10300 0.0
10400 0.0
10500 0.0
10600 0.0
10700 0.0
10800 0.0
10900 0.0
11000 0.0
11100 0.0
11200 0.0
11300 0.0
11400 0.0
11500 0.0
11600 0.0
11700 0.0
11800 0.0
11900 0.0
12000 0.0
12100 0.0
12200 0.0
12300 0.0
12400 0.0
12500 0.0
12600 0.0
12700 0.0
12800 0.0
12900 0.0
13000 0.0
13100 0.0
13200 0.0
13300 0.0
13400 0.0
13500 0.0
13600 0.0
13700 0.0
13800 0.0
13900 0.0
14000 0.0
14100 0.0
14200 0.0
14300 0.0
14400 0.0
14500 0.0
14600 0.0
14700 0.0
14800 0.0
14900 0.0
15000 0.0
