
# Total neutron yield = 0.0  n/decay
	 f19 0.0
# Integral of spectrum = 2.202445525702378e-13  n/decay
100 0.0
200 0.0
300 0.0
400 0.0
500 0.0
600 0.0
700 0.0
800 0.0
900 0.0
1000 0.0
1100 0.0
1200 0.0
1300 0.0
1400 0.0
1500 0.0
1600 0.0
1700 0.0
1800 0.0
1900 0.0
2000 0.0
2100 0.0
2200 0.0
2300 0.0
2400 0.0
2500 0.0
2600 0.0
2700 0.0
2800 0.0
2900 0.0
3000 0.0
3100 0.0
3200 0.0
3300 0.0
3400 0.0
3500 0.0
3600 0.0
3700 0.0
3800 0.0
3900 0.0
4000 0.0
4100 0.0
4200 0.0
4300 0.0
4400 1.0591374322519363e-17
4500 5.141179379379813e-17
4600 1.2814804476464683e-16
4700 1.3879093815725158e-16
4800 1.2466437284006434e-16
4900 1.1281718372495023e-16
5000 1.029825771272193e-16
5100 9.49321165784052e-17
5200 8.846603543426562e-17
5300 8.341415502189047e-17
5400 7.962550652304308e-17
5500 7.696848290335889e-17
5600 7.532699058496608e-17
5700 7.460066788722147e-17
5800 7.469812884172058e-17
5900 7.554019646393181e-17
6000 7.705587453888994e-17
6100 7.918285167752716e-17
6200 8.186542113970571e-17
6300 8.505409451669823e-17
6400 8.870556617936994e-17
6500 9.278121094504405e-17
6600 9.58206232471713e-17
6700 9.094061277509215e-17
6800 7.308167574221066e-17
6900 4.497902997141566e-17
7000 0.0
7100 0.0
7200 0.0
7300 0.0
7400 0.0
7500 0.0
7600 0.0
7700 0.0
7800 0.0
7900 0.0
8000 0.0
8100 0.0
8200 0.0
8300 0.0
8400 0.0
8500 0.0
8600 0.0
8700 0.0
8800 0.0
8900 0.0
9000 0.0
9100 0.0
9200 0.0
9300 0.0
9400 0.0
9500 0.0
9600 0.0
9700 0.0
9800 0.0
9900 0.0
10000 0.0
10100 0.0
10200 0.0
10300 0.0
10400 0.0
10500 0.0
10600 0.0
10700 0.0
10800 0.0
10900 0.0
11000 0.0
11100 0.0
11200 0.0
11300 0.0
11400 0.0
11500 0.0
11600 0.0
11700 0.0
11800 0.0
11900 0.0
12000 0.0
12100 0.0
12200 0.0
12300 0.0
12400 0.0
12500 0.0
12600 0.0
12700 0.0
12800 0.0
12900 0.0
13000 0.0
13100 0.0
13200 0.0
13300 0.0
13400 0.0
13500 0.0
13600 0.0
13700 0.0
13800 0.0
13900 0.0
14000 0.0
14100 0.0
14200 0.0
14300 0.0
14400 0.0
14500 0.0
14600 0.0
14700 0.0
14800 0.0
14900 0.0
15000 0.0
