
# Total neutron yield = 0.0  n/decay
	 f19 0.0
# Integral of spectrum = 6.940133724096646e-06  n/decay
100 0.0
200 0.0
300 0.0
400 0.0
500 0.0
600 0.0
700 0.0
800 0.0
900 0.0
1000 0.0
1100 0.0
1200 0.0
1300 0.0
1400 0.0
1500 0.0
1600 0.0
1700 0.0
1800 0.0
1900 0.0
2000 0.0
2100 0.0
2200 0.0
2300 0.0
2400 0.0
2500 0.0
2600 0.0
2700 0.0
2800 0.0
2900 0.0
3000 0.0
3100 0.0
3200 0.0
3300 0.0
3400 0.0
3500 0.0
3600 0.0
3700 0.0
3800 0.0
3900 0.0
4000 0.0
4100 0.0
4200 0.0
4300 0.0
4400 0.0
4500 0.0
4600 1.3616567172784108e-12
4700 2.7147615250520542e-11
4800 8.425571308579909e-11
4900 1.8079101380534978e-10
5000 3.0426212374630247e-10
5100 4.6398706767352624e-10
5200 6.381475856259991e-10
5300 8.307878403848584e-10
5400 1.0696534114242158e-09
5500 1.3291374998386971e-09
5600 1.5470542413124499e-09
5700 1.7768953252708726e-09
5800 1.9935410426403764e-09
5900 2.2033814179349076e-09
6000 2.4328836684380175e-09
6100 2.668612016221543e-09
6200 2.8203362561725858e-09
6300 2.9336422075705275e-09
6400 3.00255297367492e-09
6500 3.074004774958714e-09
6600 3.1334117245516875e-09
6700 3.0658422296532616e-09
6800 2.977529644616856e-09
6900 2.880518899897206e-09
7000 2.7638064540252874e-09
7100 2.650098886532885e-09
7200 2.514081601344556e-09
7300 2.374603159215768e-09
7400 2.223566769567627e-09
7500 2.0492348343321316e-09
7600 1.8824275747064155e-09
7700 1.7057797803186322e-09
7800 1.558873039045709e-09
7900 1.3964683789087296e-09
8000 1.2518433536305324e-09
8100 1.1023150911982789e-09
8200 9.618314725449232e-10
8300 8.137474036668615e-10
8400 6.779393421109889e-10
8500 5.329319607896697e-10
8600 4.289673190335701e-10
8700 3.276986870553397e-10
8800 2.646397900573689e-10
8900 2.0427227754320095e-10
9000 1.4934310607908353e-10
9100 9.018556249018386e-11
9200 3.6911756118459926e-11
9300 2.9678062709118227e-14
9400 6.891680479562393e-16
9500 5.377880798288035e-16
9600 4.0184634025843915e-16
9700 2.566006650317959e-16
9800 1.2671793835999278e-16
9900 0.0
10000 0.0
10100 0.0
10200 0.0
10300 0.0
10400 0.0
10500 0.0
10600 0.0
10700 0.0
10800 0.0
10900 0.0
11000 0.0
11100 0.0
11200 0.0
11300 0.0
11400 0.0
11500 0.0
11600 0.0
11700 0.0
11800 0.0
11900 0.0
12000 0.0
12100 0.0
12200 0.0
12300 0.0
12400 0.0
12500 0.0
12600 0.0
12700 0.0
12800 0.0
12900 0.0
13000 0.0
13100 0.0
13200 0.0
13300 0.0
13400 0.0
13500 0.0
13600 0.0
13700 0.0
13800 0.0
13900 0.0
14000 0.0
14100 0.0
14200 0.0
14300 0.0
14400 0.0
14500 0.0
14600 0.0
14700 0.0
14800 0.0
14900 0.0
15000 0.0
