
# Total neutron yield = 0.0  n/decay
	 f19 0.0
# Integral of spectrum = 1.2965754937793166e-06  n/decay
100 0.0
200 0.0
300 0.0
400 0.0
500 0.0
600 0.0
700 0.0
800 0.0
900 0.0
1000 0.0
1100 0.0
1200 0.0
1300 0.0
1400 0.0
1500 0.0
1600 0.0
1700 0.0
1800 0.0
1900 0.0
2000 0.0
2100 0.0
2200 0.0
2300 0.0
2400 0.0
2500 0.0
2600 0.0
2700 0.0
2800 0.0
2900 0.0
3000 0.0
3100 0.0
3200 0.0
3300 0.0
3400 0.0
3500 0.0
3600 0.0
3700 0.0
3800 0.0
3900 0.0
4000 0.0
4100 0.0
4200 0.0
4300 0.0
4400 0.0
4500 1.503234870244303e-11
4600 8.14872704659686e-11
4700 1.9643263722347463e-10
4800 3.177396971954825e-10
4900 4.265876681892536e-10
5000 4.836673272138532e-10
5100 5.525055046150939e-10
5200 6.172495578274399e-10
5300 6.593123904366724e-10
5400 6.3750807018699e-10
5500 6.183746340567613e-10
5600 6.016687315810244e-10
5700 5.87157111939892e-10
5800 5.746319680565981e-10
5900 5.639089887103824e-10
6000 5.548244511513286e-10
6100 5.472322693782185e-10
6200 5.410031597417051e-10
6300 5.360220776610967e-10
6400 5.321866555475017e-10
6500 5.236153194434839e-10
6600 5.009991193397266e-10
6700 4.612112430015417e-10
6800 4.108918440485728e-10
6900 3.425864836666589e-10
7000 2.876481608751947e-10
7100 2.3030682323908424e-10
7200 1.9097537324685947e-10
7300 1.523910022250336e-10
7400 1.1506811154178557e-10
7500 7.263977053884607e-11
7600 3.2852868678816066e-11
7700 3.479412346551699e-14
7800 4.994651837772933e-16
7900 3.9654305657318613e-16
8000 3.0318078265804127e-16
8100 1.9965041962893686e-16
8200 1.0510347822342609e-16
8300 0.0
8400 0.0
8500 0.0
8600 0.0
8700 0.0
8800 0.0
8900 0.0
9000 0.0
9100 0.0
9200 0.0
9300 0.0
9400 0.0
9500 0.0
9600 0.0
9700 0.0
9800 0.0
9900 0.0
10000 0.0
10100 0.0
10200 0.0
10300 0.0
10400 0.0
10500 0.0
10600 0.0
10700 0.0
10800 0.0
10900 0.0
11000 0.0
11100 0.0
11200 0.0
11300 0.0
11400 0.0
11500 0.0
11600 0.0
11700 0.0
11800 0.0
11900 0.0
12000 0.0
12100 0.0
12200 0.0
12300 0.0
12400 0.0
12500 0.0
12600 0.0
12700 0.0
12800 0.0
12900 0.0
13000 0.0
13100 0.0
13200 0.0
13300 0.0
13400 0.0
13500 0.0
13600 0.0
13700 0.0
13800 0.0
13900 0.0
14000 0.0
14100 0.0
14200 0.0
14300 0.0
14400 0.0
14500 0.0
14600 0.0
14700 0.0
14800 0.0
14900 0.0
15000 0.0
