
# Total neutron yield = 0.0  n/decay
	 f19 0.0
# Integral of spectrum = 6.462884493423596e-09  n/decay
100 0.0
200 0.0
300 0.0
400 0.0
500 0.0
600 0.0
700 0.0
800 0.0
900 0.0
1000 0.0
1100 0.0
1200 0.0
1300 0.0
1400 0.0
1500 0.0
1600 0.0
1700 0.0
1800 0.0
1900 0.0
2000 0.0
2100 0.0
2200 0.0
2300 0.0
2400 0.0
2500 0.0
2600 0.0
2700 0.0
2800 0.0
2900 0.0
3000 0.0
3100 0.0
3200 0.0
3300 0.0
3400 0.0
3500 0.0
3600 0.0
3700 0.0
3800 0.0
3900 0.0
4000 0.0
4100 0.0
4200 0.0
4300 0.0
4400 3.5990460397517196e-12
4500 3.5165336449604395e-12
4600 3.425942572532469e-12
4700 3.3413572727851507e-12
4800 3.2622854643741203e-12
4900 3.1880966379333584e-12
5000 3.1184799696256507e-12
5100 3.05309725675649e-12
5200 2.9916190794930803e-12
5300 2.9337393288021942e-12
5400 2.8791951435489235e-12
5500 2.8277356780545152e-12
5600 2.779140751927205e-12
5700 2.7332041816299892e-12
5800 2.6897445645967207e-12
5900 2.6485931214588898e-12
6000 2.6095953167714858e-12
6100 2.5726086872729962e-12
6200 2.5375050589429535e-12
6300 2.504164754054234e-12
6400 2.472478619774512e-12
6500 2.4423455369156177e-12
6600 5.012712089991214e-13
6700 2.9206307022140436e-16
6800 2.5810732471917203e-16
6900 2.177792612504335e-16
7000 1.6332535525467862e-16
7100 1.0442654518849417e-16
7200 2.9341717497266484e-17
7300 0.0
7400 0.0
7500 0.0
7600 0.0
7700 0.0
7800 0.0
7900 0.0
8000 0.0
8100 0.0
8200 0.0
8300 0.0
8400 0.0
8500 0.0
8600 0.0
8700 0.0
8800 0.0
8900 0.0
9000 0.0
9100 0.0
9200 0.0
9300 0.0
9400 0.0
9500 0.0
9600 0.0
9700 0.0
9800 0.0
9900 0.0
10000 0.0
10100 0.0
10200 0.0
10300 0.0
10400 0.0
10500 0.0
10600 0.0
10700 0.0
10800 0.0
10900 0.0
11000 0.0
11100 0.0
11200 0.0
11300 0.0
11400 0.0
11500 0.0
11600 0.0
11700 0.0
11800 0.0
11900 0.0
12000 0.0
12100 0.0
12200 0.0
12300 0.0
12400 0.0
12500 0.0
12600 0.0
12700 0.0
12800 0.0
12900 0.0
13000 0.0
13100 0.0
13200 0.0
13300 0.0
13400 0.0
13500 0.0
13600 0.0
13700 0.0
13800 0.0
13900 0.0
14000 0.0
14100 0.0
14200 0.0
14300 0.0
14400 0.0
14500 0.0
14600 0.0
14700 0.0
14800 0.0
14900 0.0
15000 0.0
