
# Total neutron yield = 0.0  n/decay
	 f19 0.0
# Integral of spectrum = 7.840013620541134e-15  n/decay
100 0.0
200 0.0
300 0.0
400 0.0
500 0.0
600 0.0
700 0.0
800 0.0
900 0.0
1000 0.0
1100 0.0
1200 0.0
1300 0.0
1400 0.0
1500 0.0
1600 0.0
1700 0.0
1800 0.0
1900 0.0
2000 0.0
2100 0.0
2200 0.0
2300 0.0
2400 0.0
2500 0.0
2600 0.0
2700 0.0
2800 0.0
2900 0.0
3000 0.0
3100 0.0
3200 0.0
3300 0.0
3400 0.0
3500 0.0
3600 0.0
3700 0.0
3800 0.0
3900 0.0
4000 0.0
4100 0.0
4200 0.0
4300 0.0
4400 2.323401772907727e-18
4500 4.0061224125061016e-18
4600 3.965969794502763e-18
4700 3.920856995496288e-18
4800 3.871535977539258e-18
4900 3.818657641735136e-18
5000 3.762784294129657e-18
5100 3.704407118958684e-18
5200 3.643941424519756e-18
5300 3.581757022982609e-18
5400 3.5181720763968385e-18
5500 3.4534646353438153e-18
5600 3.3878695905553807e-18
5700 3.3216018880942176e-18
5800 3.2548424779144425e-18
5900 3.1877492456323597e-18
6000 3.12045992467357e-18
6100 3.053094202937101e-18
6200 2.9857557876592905e-18
6300 2.9185351769177487e-18
6400 2.8515097195137393e-18
6500 2.784747311130907e-18
6600 2.6397172402896985e-18
6700 1.323182473074238e-18
6800 0.0
6900 0.0
7000 0.0
7100 0.0
7200 0.0
7300 0.0
7400 0.0
7500 0.0
7600 0.0
7700 0.0
7800 0.0
7900 0.0
8000 0.0
8100 0.0
8200 0.0
8300 0.0
8400 0.0
8500 0.0
8600 0.0
8700 0.0
8800 0.0
8900 0.0
9000 0.0
9100 0.0
9200 0.0
9300 0.0
9400 0.0
9500 0.0
9600 0.0
9700 0.0
9800 0.0
9900 0.0
10000 0.0
10100 0.0
10200 0.0
10300 0.0
10400 0.0
10500 0.0
10600 0.0
10700 0.0
10800 0.0
10900 0.0
11000 0.0
11100 0.0
11200 0.0
11300 0.0
11400 0.0
11500 0.0
11600 0.0
11700 0.0
11800 0.0
11900 0.0
12000 0.0
12100 0.0
12200 0.0
12300 0.0
12400 0.0
12500 0.0
12600 0.0
12700 0.0
12800 0.0
12900 0.0
13000 0.0
13100 0.0
13200 0.0
13300 0.0
13400 0.0
13500 0.0
13600 0.0
13700 0.0
13800 0.0
13900 0.0
14000 0.0
14100 0.0
14200 0.0
14300 0.0
14400 0.0
14500 0.0
14600 0.0
14700 0.0
14800 0.0
14900 0.0
15000 0.0
